File: ITO_MLI/XPS--18_1-O1s.txt
# Transition                      O 1s
# Notes
# Creation Comment
# Energy Mode                     KE
# Start Energy in eV              705
# End Energy in eV                735
# Energy Step in eV               0.1
# Number Of Sweeps                1
# Dwell Time per Sweep in s       0.3
# Analyser Mode                   CAE
# Pass Energy in eV/Retard Ratio  25
# Magnification                   high
# Divide Voltages By 10           off
# Excitation Source               Mg Ka 1253.6 eV normal
# Excitation Energy in eV         1253.6
# Analyser Workfunction in eV     4.5
# Entrance Slit                   6 x 12 mm
# Exit Slit                       5 x 11 mm
#
#
# Kinetic Energy in eV         Counts
# --------------------         ------
705.000                     1860.25
705.200                     1887.75
705.400                     1844
705.600                     1840
705.800                     1769.75
706.000                     1829.5
706.200                     1808
706.400                     1756.25
706.600                     1798
706.800                     1834.25
707.000                     1753
707.200                     1811.25
707.400                     1778.5
707.600                     1822.75
707.800                     1783.25
708.000                     1829.75
708.200                     1883.5
708.400                     1825
708.600                     1812.5
708.800                     1873.75
709.000                     1962.5
709.200                     2008.25
709.400                     2066.75
709.600                     2101.75
709.800                     2290.5
710.000                     2489.25
710.200                     2644.25
710.400                     2965.5
710.600                     3279.75
710.800                     3722.75
711.000                     4342.75
711.200                     4787.5
711.400                     5516.5
711.600                     6299.25
711.800                     7251.75
712.000                     8009.5
712.200                     8826
712.400                     9354.5
712.600                     9715.25
712.800                     9539.5
713.000                     9249.25
713.200                     8555
713.400                     7687.75
713.600                     6630.25
713.800                     5478.75
714.000                     4689.75
714.200                     3913.25
714.400                     3248.5
714.600                     2928.75
714.800                     2502.5
715.000                     2264.5
715.200                     2101
715.400                     1979.5
715.600                     1915.75
715.800                     1858.25
716.000                     1782
716.200                     1829
716.400                     1770.25
716.600                     1745.5
716.800                     1816.5
717.000                     1750
717.200                     1870.25
717.400                     1856
717.600                     1770
717.800                     1773.75
718.000                     1795.5
718.200                     1755
718.400                     1748
718.600                     1718
718.800                     1778.25
719.000                     1822.5
719.200                     1843
719.400                     1809.5
719.600                     1859
719.800                     1908.75
720.000                     1989.25
720.200                     2033.75
720.400                     2089.25
720.600                     2140.5
720.800                     2313.75
721.000                     2287.25
721.200                     2348.5
721.400                     2334.5
721.600                     2360
721.800                     2328
722.000                     2290.75
722.200                     2356.75
722.400                     2210.5
722.600                     2219.75
722.800                     2136.75
723.000                     2115.25
723.200                     2072.25
723.400                     2042
723.600                     1950.25
723.800                     1935.25
724.000                     1821.25
724.200                     1880.75
724.400                     1798.25
724.600                     1673.25
724.800                     1651.25
725.000                     1620.5
725.200                     1617.25
725.400                     1557.5
725.600                     1561
725.800                     1523.75
726.000                     1574.5
726.200                     1522.75
726.400                     1564.75
726.600                     1600.5
726.800                     1559.25
727.000                     1528
727.200                     1592
727.400                     1583.75
727.600                     1502.25
727.800                     1552.75
728.000                     1588
728.200                     1589
728.400                     1586
728.600                     1613
728.800                     1657.75
729.000                     1547.25
729.200                     1592.75
729.400                     1533.75
729.600                     1590.75
729.800                     1546.25
730.000                     1609.25
730.200                     1611.25
730.400                     1598.25
730.600                     1628.5
730.800                     1597.5
731.000                     1619.75
731.200                     1602.75
731.400                     1577.5
731.600                     1573.75
731.800                     1590
732.000                     1544.5
732.200                     1591.25
732.400                     1628.5
732.600                     1582.25
732.800                     1591.75
733.000                     1588
733.200                     1604.5
733.400                     1580.75
733.600                     1592.75
733.800                     1518.5
734.000                     1624.5
734.200                     1512.5
734.400                     1526.5
734.600                     1517.75
734.800                     1612.75
735.000                     1546