File: ITO_MLI/XPS--16_1-Al2p.txt
# Transition                      Al 2p
# Notes
# Creation Comment
# Energy Mode                     KE
# Start Energy in eV              1160
# End Energy in eV                1185
# Energy Step in eV               0.1
# Number Of Sweeps                6
# Dwell Time per Sweep in s       0.3
# Analyser Mode                   CAE
# Pass Energy in eV/Retard Ratio  25
# Magnification                   high
# Divide Voltages By 10           off
# Excitation Source               Mg Ka 1253.6 eV normal
# Excitation Energy in eV         1253.6
# Analyser Workfunction in eV     4.5
# Entrance Slit                   6 x 12 mm
# Exit Slit                       5 x 11 mm
#
#
# Kinetic Energy in eV         Counts
# --------------------         ------
1160.000                    6216.75
1160.100                    6261.5
1160.200                    6152.25
1160.300                    6265.5
1160.400                    6312.75
1160.500                    6171.5
1160.600                    6091.25
1160.700                    6145.75
1160.800                    6018.25
1160.900                    6222.5
1161.000                    6230.75
1161.100                    6255.5
1161.200                    6096.25
1161.300                    6113.25
1161.400                    6081
1161.500                    6200.5
1161.600                    6036.5
1161.700                    6168.25
1161.800                    6140.5
1161.900                    6283.5
1162.000                    6159.75
1162.100                    6175.5
1162.200                    6102.5
1162.300                    6006.5
1162.400                    6203.75
1162.500                    6189
1162.600                    6243.25
1162.700                    6255.5
1162.800                    6201
1162.900                    6063
1163.000                    6252.25
1163.100                    6238.75
1163.200                    6184
1163.300                    6207.75
1163.400                    6173.5
1163.500                    6094.25
1163.600                    6130
1163.700                    6247
1163.800                    6173.75
1163.900                    6272.75
1164.000                    6265
1164.100                    6321.5
1164.200                    6087.5
1164.300                    6296.25
1164.400                    6347.5
1164.500                    6196.5
1164.600                    6198.75
1164.700                    6193.25
1164.800                    6191.75
1164.900                    6396.75
1165.000                    6446.5
1165.100                    6405.75
1165.200                    6335.75
1165.300                    6402.5
1165.400                    6408.25
1165.500                    6434.5
1165.600                    6643.5
1165.700                    6580.25
1165.800                    6832.75
1165.900                    6954.5
1166.000                    7149.75
1166.100                    7400.75
1166.200                    7543.75
1166.300                    7897.25
1166.400                    8246.5
1166.500                    8479.25
1166.600                    9044.75
1166.700                    9553
1166.800                   10003.8
1166.900                   10408.2
1167.000                   11076.8
1167.100                   11606.5
1167.200                   12262.8
1167.300                   12540.2
1167.400                   13002
1167.500                   13351.2
1167.600                   13609
1167.700                   13931
1167.800                   13739
1167.900                   13641.2
1168.000                   13482
1168.100                   13294.5
1168.200                   12778.2
1168.300                   12428.8
1168.400                   11951.2
1168.500                   11212
1168.600                   10653.2
1168.700                   10260
1168.800                    9735.5
1168.900                    9283.5
1169.000                    9008.25
1169.100                    8546.75
1169.200                    8172.25
1169.300                    7873.75
1169.400                    7502
1169.500                    7622
1169.600                    7487.5
1169.700                    7600.25
1169.800                    7601.25
1169.900                    7645.75
1170.000                    7844.25
1170.100                    8069.75
1170.200                    8275.5
1170.300                    8521.75
1170.400                    8835.5
1170.500                    9052.5
1170.600                    9077
1170.700                    9279.75
1170.800                    9263.75
1170.900                    9001.25
1171.000                    8780.5
1171.100                    8609.5
1171.200                    8174
1171.300                    7833.5
1171.400                    7533
1171.500                    6896.5
1171.600                    6696.25
1171.700                    6428.25
1171.800                    6400.5
1171.900                    6158
1172.000                    6089.75
1172.100                    5925
1172.200                    5939.75
1172.300                    6010.25
1172.400                    5904.25
1172.500                    6045.5
1172.600                    5907.5
1172.700                    5807
1172.800                    5851
1172.900                    5870
1173.000                    5776
1173.100                    5846.75
1173.200                    5884.5
1173.300                    5777
1173.400                    5729.75
1173.500                    5664
1173.600                    5722
1173.700                    5822.25
1173.800                    5844.5
1173.900                    5877.5
1174.000                    5758.75
1174.100                    5770.25
1174.200                    5747.5
1174.300                    5791.5
1174.400                    5715.25
1174.500                    5755.25
1174.600                    5757.25
1174.700                    5891.25
1174.800                    5822.75
1174.900                    5819.25
1175.000                    5782
1175.100                    5878
1175.200                    6064.25
1175.300                    5916
1175.400                    5935.25
1175.500                    6157.75
1175.600                    6086.25
1175.700                    6145.75
1175.800                    6125.75
1175.900                    6117.5
1176.000                    6112.75
1176.100                    6264.25
1176.200                    6331.75
1176.300                    6267.25
1176.400                    6254.75
1176.500                    6219
1176.600                    6210.5
1176.700                    6186.75
1176.800                    6160.5
1176.900                    6265.75
1177.000                    6294.75
1177.100                    6352.5
1177.200                    6222.5
1177.300                    6142.25
1177.400                    6194.75
1177.500                    6234.5
1177.600                    6261.75
1177.700                    6103.5
1177.800                    6207
1177.900                    6218.25
1178.000                    6254
1178.100                    6207.75
1178.200                    6352.5
1178.300                    6396.25
1178.400                    6452.75
1178.500                    6376
1178.600                    6201
1178.700                    6236.25
1178.800                    6121.25
1178.900                    6126.5
1179.000                    6136
1179.100                    6104.5
1179.200                    6074.25
1179.300                    6167.75
1179.400                    6058.75
1179.500                    5989.25
1179.600                    5976
1179.700                    5927
1179.800                    6003
1179.900                    5759.5
1180.000                    5853
1180.100                    5744
1180.200                    5782.25
1180.300                    5801.5
1180.400                    5749
1180.500                    5762
1180.600                    5847.75
1180.700                    5763
1180.800                    5874.5
1180.900                    5817.75
1181.000                    5713.5
1181.100                    5874.5
1181.200                    5796.75
1181.300                    5821.5
1181.400                    5745.5
1181.500                    5829
1181.600                    5777.5
1181.700                    5680
1181.800                    5655.75
1181.900                    5696.75
1182.000                    5718.5
1182.100                    5667
1182.200                    5587.5
1182.300                    5561
1182.400                    5539
1182.500                    5652.5
1182.600                    5612.75
1182.700                    5567.5
1182.800                    5661.25
1182.900                    5625.25
1183.000                    5529.25
1183.100                    5522.5
1183.200                    5718
1183.300                    5509.5
1183.400                    5561.75
1183.500                    5566.25
1183.600                    5690.5
1183.700                    5568.5
1183.800                    5685
1183.900                    5670
1184.000                    5670.25
1184.100                    5639.25
1184.200                    5732
1184.300                    5683.25
1184.400                    5658.25
1184.500                    5601.25
1184.600                    5535.5
1184.700                    5640.75
1184.800                    5740.25
1184.900                    5569
1185.000                    5721.25