File: ITO_MLI/XPS--17_1-C1s.txt
# Transition                      C 1s
# Notes
# Creation Comment
# Energy Mode                     KE
# Start Energy in eV              945
# End Energy in eV                975
# Energy Step in eV               0.1
# Number Of Sweeps                5
# Dwell Time per Sweep in s       0.3
# Analyser Mode                   CAE
# Pass Energy in eV/Retard Ratio  25
# Magnification                   high
# Divide Voltages By 10           off
# Excitation Source               Mg Ka 1253.6 eV normal
# Excitation Energy in eV         1253.6
# Analyser Workfunction in eV     4.5
# Entrance Slit                   6 x 12 mm
# Exit Slit                       5 x 11 mm
#
#
# Kinetic Energy in eV         Counts
# --------------------         ------
945.000                     7926.75
945.200                     8014.25
945.400                     7935.5
945.600                     7907.75
945.800                     7831.25
946.000                     7925.25
946.200                     7937.25
946.400                     7724.75
946.600                     7674.75
946.800                     7620
947.000                     7567.75
947.200                     7593.25
947.400                     7609
947.600                     7611.5
947.800                     7643.75
948.000                     7515.5
948.200                     7528.75
948.400                     7606.75
948.600                     7629.25
948.800                     7432.5
949.000                     7586.25
949.200                     7623.25
949.400                     7710.5
949.600                     7622.25
949.800                     7755.5
950.000                     7678.5
950.200                     7618.25
950.400                     7630.5
950.600                     7717.75
950.800                     7710.75
951.000                     7715.75
951.200                     7690.5
951.400                     7540.75
951.600                     7687.5
951.800                     7772
952.000                     7748.5
952.200                     7760.75
952.400                     7674.25
952.600                     7736
952.800                     7747.75
953.000                     7879.25
953.200                     7673
953.400                     7763.75
953.600                     7756.75
953.800                     7765.75
954.000                     7801.25
954.200                     7750.75
954.400                     7923.75
954.600                     7847
954.800                     7801.5
955.000                     7901
955.200                     7778
955.400                     7863.25
955.600                     8064
955.800                     7890.5
956.000                     7973
956.200                     8173.75
956.400                     8279.25
956.600                     8288.75
956.800                     8488
957.000                     8769
957.200                     9028.75
957.400                     9647.75
957.600                    10128.5
957.800                    10494.2
958.000                    10747.8
958.200                    11175
958.400                    11300.8
958.600                    11080.5
958.800                    11006.5
959.000                    10330
959.200                     9922
959.400                     9442.75
959.600                     9124.5
959.800                     8562
960.000                     8450
960.200                     8177.75
960.400                     7884.5
960.600                     7678
960.800                     7624
961.000                     7619.5
961.200                     7613.75
961.400                     7640.5
961.600                     7445.5
961.800                     7512.25
962.000                     7488.75
962.200                     7581.75
962.400                     7468.25
962.600                     7433.5
962.800                     7438.5
963.000                     7633.75
963.200                     7450.5
963.400                     7480.75
963.600                     7505.25
963.800                     7538
964.000                     7494.25
964.200                     7599.5
964.400                     7519
964.600                     7529.75
964.800                     7482.25
965.000                     7440.75
965.200                     7454.75
965.400                     7626
965.600                     7582.5
965.800                     7515
966.000                     7677
966.200                     7808
966.400                     7741
966.600                     7862.5
966.800                     7817.5
967.000                     7792.25
967.200                     7871.5
967.400                     7765
967.600                     7722.75
967.800                     7814.5
968.000                     7805.25
968.200                     7747
968.400                     7817
968.600                     7723.25
968.800                     7783.75
969.000                     7801
969.200                     7713.75
969.400                     7670.5
969.600                     7474.75
969.800                     7484.75
970.000                     7304.5
970.200                     7544.25
970.400                     7499.25
970.600                     7360.25
970.800                     7535
971.000                     7576.75
971.200                     7361.75
971.400                     7514.25
971.600                     7491.5
971.800                     7472.25
972.000                     7371
972.200                     7539.75
972.400                     7494.5
972.600                     7403.25
972.800                     7478.75
973.000                     7310
973.200                     7556.25
973.400                     7553.5
973.600                     7626
973.800                     7549.75
974.000                     7481.25
974.200                     7592.25
974.400                     7645.5
974.600                     7348
974.800                     7629.25
975.000                     7551.5