File: ITO_MLI/XPS--15_1-Wide.txt
# Transition                      wide
# Notes
# Creation Comment
# Energy Mode                     KE
# Start Energy in eV              150
# End Energy in eV                1260
# Energy Step in eV               0.5
# Number Of Sweeps                1
# Dwell Time per Sweep in s       0.3
# Analyser Mode                   CAE
# Pass Energy in eV/Retard Ratio  50
# Magnification                   high
# Divide Voltages By 10           off
# Excitation Source               Mg Ka 1253.6 eV normal
# Excitation Energy in eV         1253.6
# Analyser Workfunction in eV     4.5
# Entrance Slit                   6 x 12 mm
# Exit Slit                       5 x 11 mm
#
#
# Kinetic Energy in eV         Counts
# --------------------         ------
150.000                    19548.9
154.000                    19300.7
158.000                    18931.4
162.000                    18774
166.000                    18375.4
170.000                    17972
174.000                    19749.2
178.000                    17653.9
182.000                    17395.1
186.000                    16993.6
190.000                    16848.6
194.000                    16401.1
198.000                    16195.2
202.000                    16073.6
206.000                    16378.5
210.000                    15764.9
214.000                    15210.5
218.000                    15010.1
222.000                    14931.3
226.000                    14856
230.000                    15182.9
234.000                    15308.6
238.000                    14913.3
242.000                    14971.9
246.000                    15000.7
250.000                    15390.8
254.000                    15237.3
258.000                    14841.5
262.000                    14300.7
266.000                    13450.4
270.000                    13354.2
274.000                    12995
278.000                    12820
282.000                    12521.1
286.000                    12892.7
290.000                    12571.6
294.000                    12582.8
298.000                    12597.7
302.000                    12403.2
306.000                    12624.2
310.000                    12572.8
314.000                    12682
318.000                    12334
322.000                    12583
326.000                    12338.2
330.000                    12338.6
334.000                    12387.9
338.000                    12416.6
342.000                    12544.1
346.000                    12629.3
350.000                    12507.8
354.000                    12480.6
358.000                    12626.6
362.000                    12651
366.000                    12696.2
370.000                    12741.6
374.000                    12791.2
378.000                    12828.2
382.000                    12796
386.000                    13012.2
390.000                    12992.2
394.000                    13293.1
398.000                    13258.5
402.000                    13149.8
406.000                    13289.8
410.000                    13180.7
414.000                    13417.5
418.000                    13502.9
422.000                    13584.2
426.000                    13481.9
430.000                    13865.1
434.000                    13848.9
438.000                    14419.9
442.000                    15234.2
446.000                    14468.9
450.000                    14558.2
454.000                    14819.9
458.000                    15335.1
462.000                    15734.4
466.000                    15440.6
470.000                    15562.2
474.000                    16576.2
478.000                    18157.3
482.000                    15743.4
486.000                    14583.1
490.000                    13750.7
494.000                    16398.5
498.000                    23299.2
502.000                    16499.9
506.000                    12584.1
510.000                     9730.5
514.000                     8596.3
518.000                     8367.2
522.000                     8260.7
526.000                     8295.1
530.000                     8294.8
534.000                     8172.7
538.000                     8219.6
542.000                     8270.7
546.000                     8132.2
550.000                     8218.2
554.000                     8267
558.000                     8416.8
562.000                     8262.8
566.000                     8192.8
570.000                     8242.8
574.000                     8306.4
578.000                     8139.5
582.000                     8221.7
586.000                     8356.2
590.000                     8430.7
594.000                     8345.1
598.000                     8491.7
602.000                     8206.6
606.000                     8494.6
610.000                     8695.2
614.000                     8547.3
618.000                     8674
622.000                     8534.6
626.000                     8696.4
630.000                     8690.7
634.000                     8811.5
638.000                     8859.3
642.000                     8979.6
646.000                     9145.3
650.000                     9271.9
654.000                     9096.9
658.000                     9177.4
662.000                     9340.1
666.000                     9461.6
670.000                     9385.8
674.000                     9541.8
678.000                     9534.8
682.000                     9693.2
686.000                    10536.2
690.000                    11121.1
694.000                     9695.3
698.000                     8682.3
702.000                     7762.7
706.000                     7003.7
710.000                    14643.4
714.000                    14313.6
718.000                     6836.6
722.000                     8642
726.000                     5873.1
730.000                     6037.5
734.000                     5833.7
738.000                     5766.9
742.000                     5785.6
746.000                     5610.8
750.000                     5585.9
754.000                     5675.6
758.000                     5785.8
762.000                     5714.3
766.000                     5646.8
770.000                     5494.3
774.000                     5501
778.000                     5541.6
782.000                     5643.1
786.000                     5477.8
790.000                     5524.3
794.000                     5569.3
798.000                     5531
802.000                     5474.6
806.000                     5573.5
810.000                     5581.7
814.000                     5487.8
818.000                     5519.1
822.000                     5429.6
826.000                     5374.4
830.000                     5422.7
834.000                     5604.7
838.000                     5474.2
842.000                     5654.7
846.000                     5481.1
850.000                     5501.1
854.000                     5497.7
858.000                     5486.2
862.000                     5387.1
866.000                     5527.6
870.000                     5491.8
874.000                     5446.5
878.000                     5437.3
882.000                     5514.3
886.000                     5559.6
890.000                     5589.8
894.000                     5633
898.000                     5547.9
902.000                     5590.3
906.000                     5561.7
910.000                     5523.2
914.000                     5617
918.000                     5606.6
922.000                     5869.5
926.000                     5655.6
930.000                     5700.7
934.000                     5618.8
938.000                     5729.7
942.000                     5624.8
946.000                     5711.6
950.000                     5473.7
954.000                     5768.3
958.000                     7702.4
962.000                     5531.3
966.000                     5702.6
970.000                     5512.2
974.000                     5588
978.000                     6007.8
982.000                     5393.7
986.000                     5417.9
990.000                     5369.4
994.000                     5370.4
998.000                     5589.9
1002.000                    5529.5
1006.000                    5269.4
1010.000                    5362.1
1014.000                    5444.6
1018.000                    5258.8
1022.000                    5297.6
1026.000                    5323.2
1030.000                    5345.2
1034.000                    5347.9
1038.000                    5206.6
1042.000                    5277.6
1046.000                    5478.5
1050.000                    5392.5
1054.000                    5303.5
1058.000                    5322
1062.000                    5381.6
1066.000                    5492.5
1070.000                    5517.3
1074.000                    5423.9
1078.000                    5494.8
1082.000                    5476.6
1086.000                    5588.7
1090.000                    5773.4
1094.000                    5625.3
1098.000                    5572.9
1102.000                    5464.4
1106.000                    5527.4
1110.000                    5677.1
1114.000                    4887.5
1118.000                    5073.7
1122.000                    8142.6
1126.000                    6116.9
1130.000                    4821.9
1134.000                    4729.5
1138.000                    4523
1142.000                    4371.2
1146.000                    4333.7
1150.000                    4390.8
1154.000                    4453.1
1158.000                    3786.2
1162.000                    3698
1166.000                    5291.4
1170.000                    5139.7
1174.000                    3557.3
1178.000                    3739.6
1182.000                    3481.1
1186.000                    3377
1190.000                    3473
1194.000                    3412.8
1198.000                    3464.8
1202.000                    3354
1206.000                    3371.7
1210.000                    3392.5
1214.000                    3537.8
1218.000                    4125.3
1222.000                    3460.8
1226.000                    3241.8
1230.000                    3489.4
1234.000                    3481.2
1238.000                    3247.1
1242.000                    3227
1246.000                    3283.9
1250.000                    3280
1254.000                    3213.8
1258.000                    3251.8
1260.000                    3221.6