File: ITO_Radiator/XPS--4_1-Sn3d.txt
# Transition                      Sn 3d
# Notes
# Creation Comment
# Energy Mode                     KE
# Start Energy in eV              749.6
# End Energy in eV                779.6
# Energy Step in eV               0.1
# Number Of Sweeps                15
# Dwell Time per Sweep in s       0.3
# Analyser Mode                   CAE
# Pass Energy in eV/Retard Ratio  25
# Magnification                   high
# Divide Voltages By 10           off
# Excitation Source               Mg Ka 1253.6 eV normal
# Excitation Energy in eV         1253.6
# Analyser Workfunction in eV     4.5
# Entrance Slit                   6 x 12 mm
# Exit Slit                       5 x 11 mm
#
#
# Kinetic Energy in eV         Counts
# --------------------         ------
749.600                    90187.8
749.800                    89469.2
750.000                    89821
750.200                    90270.5
750.400                    89625.8
750.600                    89985.2
750.800                    89423.5
751.000                    90214.5
751.200                    90002
751.400                    89311
751.600                    89066.8
751.800                    89510.8
752.000                    89910.5
752.200                    89206
752.400                    89544.2
752.600                    88958.8
752.800                    89434.2
753.000                    89502.8
753.200                    88671.2
753.400                    88783.5
753.600                    89242.2
753.800                    89102.2
754.000                    88755.2
754.200                    88730.5
754.400                    89036.5
754.600                    88604.5
754.800                    88973.5
755.000                    88037.8
755.200                    88903.2
755.400                    88950.2
755.600                    88862.8
755.800                    88954.2
756.000                    89183.5
756.200                    89627
756.400                    90053
756.600                    90997.2
756.800                    92594.8
757.000                    93769
757.200                    96609.5
757.400                    98776
757.600                   102004
757.800                   105079
758.000                   107427
758.200                   109549
758.400                   109841
758.600                   108799
758.800                   106890
759.000                   104809
759.200                   100586
759.400                    97523.2
759.600                    94332.5
759.800                    91884.8
760.000                    89897.2
760.200                    89142.2
760.400                    88272
760.600                    87691.5
760.800                    87542.5
761.000                    86858.2
761.200                    86868
761.400                    86700.5
761.600                    87080.8
761.800                    86966
762.000                    86418.5
762.200                    86325.2
762.400                    86262.5
762.600                    86549.8
762.800                    85902.5
763.000                    86635.5
763.200                    86626.5
763.400                    86732.2
763.600                    87055.5
763.800                    87281
764.000                    87374.2
764.200                    87514.2
764.400                    88579.8
764.600                    88787.5
764.800                    90104.5
765.000                    91188.8
765.200                    93155
765.400                    96332.8
765.600                    99518.5
765.800                   103096
766.000                   108166
766.200                   112280
766.400                   116790
766.600                   118974
766.800                   121524
767.000                   120242
767.200                   118189
767.400                   113574
767.600                   109388
767.800                   103400
768.000                    99060.5
768.200                    95545.5
768.400                    92618.2
768.600                    90643.2
768.800                    89683.2
769.000                    88790.5
769.200                    88431.5
769.400                    87869.2
769.600                    87752
769.800                    87209.8
770.000                    86909.2
770.200                    86822
770.400                    86492
770.600                    85945.8
770.800                    86723.8
771.000                    86359.8
771.200                    86500.2
771.400                    86231.2
771.600                    86084.2
771.800                    86317.5
772.000                    86028
772.200                    86170
772.400                    85733.8
772.600                    86006.8
772.800                    86306.2
773.000                    86147
773.200                    86139
773.400                    86182.5
773.600                    86812
773.800                    86395.5
774.000                    86621.8
774.200                    87272
774.400                    88107.5
774.600                    87921.8
774.800                    88472.5
775.000                    88660.8
775.200                    89392
775.400                    89216.2
775.600                    89362.8
775.800                    89189.2
776.000                    89402.5
776.200                    88932.8
776.400                    89398.2
776.600                    89403.5
776.800                    89459.2
777.000                    89362.8
777.200                    89537
777.400                    89549.2
777.600                    89413.2
777.800                    89163
778.000                    88769.8
778.200                    88910.5
778.400                    88765.8
778.600                    88660.2
778.800                    88201.5
779.000                    88398.8
779.200                    89008.2
779.400                    88537.5
779.600                    88794.2