File: ITO_Radiator/XPS--13_1-O1s.txt
# Transition                      O 1s
# Notes
# Creation Comment
# Energy Mode                     KE
# Start Energy in eV              715.6
# End Energy in eV                738.6
# Energy Step in eV               0.1
# Number Of Sweeps                5
# Dwell Time per Sweep in s       0.3
# Analyser Mode                   CAE
# Pass Energy in eV/Retard Ratio  25
# Magnification                   high
# Divide Voltages By 10           off
# Excitation Source               Mg Ka 1253.6 eV normal
# Excitation Energy in eV         1253.6
# Analyser Workfunction in eV     4.5
# Entrance Slit                   6 x 12 mm
# Exit Slit                       5 x 11 mm
#
#
# Kinetic Energy in eV         Counts
# --------------------         ------
715.600                    31118.8
715.700                    31135.2
715.800                    31234.8
715.900                    31202.8
716.000                    31272.8
716.100                    31571.5
716.200                    31335
716.300                    31136.8
716.400                    30999
716.500                    30997
716.600                    30923
716.700                    30916
716.800                    31003.2
716.900                    31044.2
717.000                    31133.8
717.100                    31128.5
717.200                    30784
717.300                    30908.5
717.400                    30859.8
717.500                    30897.8
717.600                    31053
717.700                    31048.8
717.800                    30924.5
717.900                    31006
718.000                    30750
718.100                    30882.8
718.200                    30959.8
718.300                    30872
718.400                    30503.2
718.500                    30732.5
718.600                    30854.5
718.700                    30885.2
718.800                    30977.5
718.900                    30701.8
719.000                    30720
719.100                    30973.2
719.200                    31070.8
719.300                    31316.5
719.400                    31239.5
719.500                    31561
719.600                    31382.8
719.700                    31568.8
719.800                    31643.8
719.900                    32142.2
720.000                    32062.8
720.100                    32476.5
720.200                    32785.5
720.300                    33054
720.400                    33451
720.500                    33954.2
720.600                    34317.8
720.700                    34767.8
720.800                    35230.8
720.900                    35956.2
721.000                    36573.8
721.100                    37200.8
721.200                    38018.8
721.300                    39067.2
721.400                    39707
721.500                    40702.2
721.600                    41786
721.700                    42902
721.800                    43793.5
721.900                    45497.2
722.000                    46557.2
722.100                    48190.8
722.200                    49407.8
722.300                    51395.8
722.400                    53198.5
722.500                    54928
722.600                    56828.2
722.700                    59009.5
722.800                    60368.8
722.900                    61704.8
723.000                    62408.2
723.100                    63217.5
723.200                    63147.5
723.300                    62856.5
723.400                    61873
723.500                    60407.5
723.600                    58469.8
723.700                    56299.2
723.800                    53686.8
723.900                    51128.5
724.000                    48401.8
724.100                    45621
724.200                    43039.5
724.300                    40567.2
724.400                    38714.5
724.500                    37059.2
724.600                    35687.8
724.700                    34572.8
724.800                    33676.5
724.900                    32851.5
725.000                    32467.5
725.100                    31958.5
725.200                    31664.5
725.300                    31236.5
725.400                    30907.2
725.500                    30253.5
725.600                    30386.2
725.700                    30445
725.800                    30286.2
725.900                    30124
726.000                    30025.5
726.100                    29810
726.200                    29822
726.300                    29912.8
726.400                    30048.5
726.500                    29877
726.600                    30033.2
726.700                    29729.2
726.800                    29710.5
726.900                    29716.2
727.000                    29671.8
727.100                    29822
727.200                    29746
727.300                    30015.2
727.400                    29930.5
727.500                    30088.2
727.600                    29744.2
727.700                    29720.8
727.800                    29952
727.900                    30030.5
728.000                    29819
728.100                    29812
728.200                    30166.8
728.300                    29623.2
728.400                    29847.8
728.500                    29947.2
728.600                    30083.8
728.700                    29677.5
728.800                    29893.2
728.900                    29927.8
729.000                    29755.2
729.100                    29771
729.200                    29767.5
729.300                    29678.5
729.400                    29629
729.500                    30053.8
729.600                    29965.8
729.700                    30036.5
729.800                    29951
729.900                    30160.2
730.000                    30030.2
730.100                    29808.2
730.200                    30526
730.300                    30641.2
730.400                    30228.2
730.500                    30842.8
730.600                    30963.5
730.700                    31013.8
730.800                    30628.8
730.900                    30811.2
731.000                    30897
731.100                    31347
731.200                    31558.8
731.300                    31643.8
731.400                    31646
731.500                    32150.8
731.600                    32192.5
731.700                    31953.8
731.800                    31672.8
731.900                    31956.5
732.000                    32070.2
732.100                    31914
732.200                    31784.2
732.300                    31690.2
732.400                    31664
732.500                    31451
732.600                    31400.8
732.700                    31251
732.800                    31305.8
732.900                    31191.8
733.000                    31024.2
733.100                    30928.2
733.200                    30814.5
733.300                    31019.5
733.400                    30633.8
733.500                    30617.2
733.600                    30695.8
733.700                    30908
733.800                    30821
733.900                    30465
734.000                    30610.8
734.100                    30264.8
734.200                    30105
734.300                    29916
734.400                    29878.2
734.500                    29725
734.600                    29331.8
734.700                    29094
734.800                    29147.5
734.900                    29309.5
735.000                    29269.8
735.100                    29180.8
735.200                    28881
735.300                    29142.8
735.400                    29103.2
735.500                    28722.5
735.600                    29027.2
735.700                    28966.5
735.800                    28827.5
735.900                    28747.8
736.000                    29069.2
736.100                    28899.2
736.200                    29020.8
736.300                    28692.8
736.400                    28542.5
736.500                    28760.5
736.600                    28964
736.700                    28799
736.800                    28816.2
736.900                    28760
737.000                    28739.2
737.100                    28839.8
737.200                    28580.2
737.300                    28760.5
737.400                    29099.2
737.500                    28995
737.600                    28891.2
737.700                    29061.2
737.800                    28951.5
737.900                    28947
738.000                    29225.5
738.100                    29302.8
738.200                    28960.5
738.300                    29109.5
738.400                    29029.5
738.500                    28774.5
738.600                    28770