File: ITO_Radiator/XPS--3_1-In3d.txt
# Transition                      In 3d
# Notes
# Creation Comment
# Energy Mode                     KE
# Start Energy in eV              793.6
# End Energy in eV                833.6
# Energy Step in eV               0.1
# Number Of Sweeps                4
# Dwell Time per Sweep in s       0.3
# Analyser Mode                   CAE
# Pass Energy in eV/Retard Ratio  25
# Magnification                   high
# Divide Voltages By 10           off
# Excitation Source               Mg Ka 1253.6 eV normal
# Excitation Energy in eV         1253.6
# Analyser Workfunction in eV     4.5
# Entrance Slit                   6 x 12 mm
# Exit Slit                       5 x 11 mm
#
#
# Kinetic Energy in eV         Counts
# --------------------         ------
793.600                    19511
793.800                    19496.8
794.000                    19406.2
794.200                    18978
794.400                    18721
794.600                    18751.5
794.800                    18529
795.000                    18375.2
795.200                    18450.2
795.400                    18208.5
795.600                    17864
795.800                    17845.5
796.000                    18024.2
796.200                    17386.5
796.400                    17377
796.600                    17503.2
796.800                    17054.8
797.000                    17105.8
797.200                    17118.2
797.400                    17213.8
797.600                    17024.8
797.800                    17033.5
798.000                    17073
798.200                    17350.2
798.400                    17627.8
798.600                    18284.2
798.800                    18950.8
799.000                    19938.5
799.200                    21652
799.400                    24132
799.600                    27417
799.800                    31790.8
800.000                    37176
800.200                    43184.8
800.400                    49534.5
800.600                    55445.2
800.800                    59550
801.000                    62155.8
801.200                    62401.5
801.400                    60021
801.600                    54176.8
801.800                    47259.5
802.000                    39594.2
802.200                    31782.8
802.400                    25948.2
802.600                    21360.5
802.800                    18547
803.000                    16794
803.200                    15203.8
803.400                    14570.2
803.600                    13941.8
803.800                    13182
804.000                    12807.2
804.200                    12635.2
804.400                    12516
804.600                    12615
804.800                    12613.2
805.000                    12530.5
805.200                    12499
805.400                    12847
805.600                    13417.2
805.800                    13754.8
806.000                    14474.8
806.200                    15536.8
806.400                    16845.2
806.600                    19097.8
806.800                    21763.2
807.000                    25898.8
807.200                    31475
807.400                    38134
807.600                    46476.5
807.800                    55424.2
808.000                    64472.2
808.200                    73420.5
808.400                    79685.2
808.600                    83170
808.800                    82853.5
809.000                    78874.8
809.200                    71360
809.400                    60730
809.600                    50084.5
809.800                    39603.8
810.000                    31394
810.200                    25639.2
810.400                    21316.2
810.600                    18778.2
810.800                    16854.2
811.000                    15514.5
811.200                    14909.5
811.400                    14007
811.600                    13425.8
811.800                    12732.2
812.000                    12343.8
812.200                    11560.5
812.400                    10880.5
812.600                    10423.2
812.800                    10152.2
813.000                     9896
813.200                     9642.25
813.400                     9511.25
813.600                     9531.5
813.800                     9338.5
814.000                     9215.75
814.200                     9057.5
814.400                     8913.5
814.600                     8866.25
814.800                     8816.25
815.000                     8892.75
815.200                     8851.5
815.400                     8922.75
815.600                     9419.5
815.800                     9780
816.000                    10396.5
816.200                    10992.5
816.400                    11731.5
816.600                    12430.8
816.800                    12882.2
817.000                    13484.5
817.200                    13588.5
817.400                    13724.5
817.600                    13496.2
817.800                    13497.5
818.000                    13232.5
818.200                    13090.8
818.400                    12676
818.600                    12669.5
818.800                    12530.2
819.000                    12333.5
819.200                    11909.2
819.400                    11650.5
819.600                    10634.2
819.800                    10276.5
820.000                     9694.25
820.200                     9036
820.400                     8618.25
820.600                     8222.75
820.800                     8097.25
821.000                     7970.25
821.200                     7722.5
821.400                     7596
821.600                     7572.25
821.800                     7505.25
822.000                     7385.5
822.200                     7270.75
822.400                     7359.75
822.600                     7287.25
822.800                     7206.5
823.000                     7204.25
823.200                     7190.75
823.400                     7093
823.600                     7094
823.800                     6968
824.000                     7105.75
824.200                     7121.5
824.400                     7051.75
824.600                     7030.25
824.800                     7057.75
825.000                     7043
825.200                     7088.5
825.400                     7122
825.600                     7220
825.800                     7261
826.000                     7320.75
826.200                     7178.25
826.400                     7217.25
826.600                     7212.5
826.800                     7154.25
827.000                     7182.5
827.200                     6997.5
827.400                     7011.5
827.600                     7022.75
827.800                     7067.5
828.000                     7124
828.200                     7033.75
828.400                     7082
828.600                     7134.75
828.800                     7070.25
829.000                     7035.75
829.200                     7082.5
829.400                     7181.5
829.600                     7021.75
829.800                     7078
830.000                     7105.25
830.200                     6770
830.400                     6823.25
830.600                     6863.5
830.800                     6877.75
831.000                     6727.5
831.200                     6634
831.400                     6511.75
831.600                     6700.75
831.800                     6583
832.000                     6659.25
832.200                     6703.5
832.400                     6684.5
832.600                     6659.5
832.800                     6546.75
833.000                     6545.5
833.200                     6592.5
833.400                     6653.75
833.600                     6557