File: ITO_Radiator/XPS--5_1-C1s.txt
# Transition                      C 1s
# Notes
# Creation Comment
# Energy Mode                     KE
# Start Energy in eV              957.6
# End Energy in eV                983.6
# Energy Step in eV               0.1
# Number Of Sweeps                10
# Dwell Time per Sweep in s       0.3
# Analyser Mode                   CAE
# Pass Energy in eV/Retard Ratio  25
# Magnification                   high
# Divide Voltages By 10           off
# Excitation Source               Mg Ka 1253.6 eV normal
# Excitation Energy in eV         1253.6
# Analyser Workfunction in eV     4.5
# Entrance Slit                   6 x 12 mm
# Exit Slit                       5 x 11 mm
#
#
# Kinetic Energy in eV         Counts
# --------------------         ------
957.600                    16337
957.700                    16415.2
957.800                    16153.5
957.900                    15926.5
958.000                    16027
958.100                    16040
958.200                    15893.2
958.300                    16100.5
958.400                    16071.2
958.500                    15883.8
958.600                    15980
958.700                    16084.5
958.800                    15835.5
958.900                    15911.2
959.000                    15947.5
959.100                    15721
959.200                    15855.5
959.300                    15944
959.400                    15892.8
959.500                    15961
959.600                    16127.5
959.700                    16061.5
959.800                    15879
959.900                    15958
960.000                    15713.5
960.100                    15916.5
960.200                    15915.2
960.300                    15914
960.400                    15781.8
960.500                    15783.5
960.600                    15880.5
960.700                    15802.8
960.800                    15724
960.900                    15915.8
961.000                    15835.5
961.100                    15899
961.200                    15817
961.300                    15839.5
961.400                    15974.5
961.500                    15916.2
961.600                    15852.5
961.700                    15712.8
961.800                    15969.8
961.900                    15956.8
962.000                    15929.5
962.100                    15806.2
962.200                    15878
962.300                    15918.5
962.400                    15921.5
962.500                    16079.2
962.600                    16057.5
962.700                    15937.5
962.800                    16224
962.900                    16123
963.000                    16084
963.100                    16304.2
963.200                    16388.8
963.300                    16421.8
963.400                    16591.5
963.500                    16562.5
963.600                    16695.2
963.700                    16930.8
963.800                    16993.2
963.900                    17078.5
964.000                    17148.8
964.100                    17210.2
964.200                    17241.8
964.300                    17387.2
964.400                    17599.8
964.500                    17420
964.600                    17220.5
964.700                    17268.8
964.800                    17101.2
964.900                    17139.8
965.000                    16951.8
965.100                    16857.2
965.200                    17098.5
965.300                    16874
965.400                    16773.8
965.500                    16828.2
965.600                    16562.2
965.700                    16774.2
965.800                    17043.2
965.900                    17091.5
966.000                    17170
966.100                    17192
966.200                    17417.8
966.300                    17802.5
966.400                    18284
966.500                    18445.5
966.600                    18604.2
966.700                    19153.2
966.800                    19910.8
966.900                    20418.8
967.000                    21035.5
967.100                    22094.5
967.200                    23216.5
967.300                    24485.5
967.400                    25276
967.500                    26937
967.600                    28445.5
967.700                    30113.5
967.800                    31841.5
967.900                    33012.5
968.000                    34615.8
968.100                    35243.8
968.200                    36266.8
968.300                    36269.2
968.400                    36310.8
968.500                    35883.8
968.600                    34926
968.700                    34190
968.800                    32655.8
968.900                    30752.5
969.000                    28899.2
969.100                    27276.8
969.200                    25512.2
969.300                    23902.2
969.400                    22551.5
969.500                    21130.5
969.600                    19831.5
969.700                    18655
969.800                    18379
969.900                    17827.2
970.000                    17304.8
970.100                    17052.5
970.200                    16413.5
970.300                    16326.8
970.400                    16080.8
970.500                    15966.2
970.600                    15732.2
970.700                    15673.8
970.800                    15647.5
970.900                    15563.2
971.000                    15613
971.100                    15524.2
971.200                    15486
971.300                    15459.5
971.400                    15352.8
971.500                    15374.8
971.600                    15266
971.700                    15365.2
971.800                    15372
971.900                    15344
972.000                    15160.2
972.100                    15276.2
972.200                    15339
972.300                    15363.2
972.400                    15476.2
972.500                    15463.2
972.600                    15313
972.700                    15160.8
972.800                    15313.8
972.900                    15412.5
973.000                    15214.2
973.100                    15340.8
973.200                    15548
973.300                    15406
973.400                    15559.8
973.500                    15436.5
973.600                    15365.5
973.700                    15329.8
973.800                    15112.2
973.900                    15206.8
974.000                    15410.8
974.100                    15437.2
974.200                    15245.8
974.300                    15317.8
974.400                    15580
974.500                    15366.8
974.600                    15253.8
974.700                    15305
974.800                    15280.2
974.900                    15243
975.000                    15287
975.100                    15399.5
975.200                    15276.2
975.300                    15372.8
975.400                    15445.5
975.500                    15544.5
975.600                    15583.2
975.700                    15634.8
975.800                    15869.2
975.900                    15864
976.000                    15931.8
976.100                    16298.8
976.200                    16129.5
976.300                    16379
976.400                    16356
976.500                    16704
976.600                    16526.5
976.700                    16651.8
976.800                    16365.5
976.900                    16527.5
977.000                    16716.8
977.100                    16626
977.200                    16553.5
977.300                    16587.2
977.400                    16540.5
977.500                    16583.5
977.600                    16393
977.700                    16469.5
977.800                    16442.2
977.900                    16344.8
978.000                    16215.8
978.100                    16166.8
978.200                    16239
978.300                    16096.5
978.400                    16323.5
978.500                    16232
978.600                    16293.5
978.700                    16044.8
978.800                    15909
978.900                    15962
979.000                    15907.8
979.100                    15995
979.200                    15825
979.300                    15747.5
979.400                    15705
979.500                    15556.2
979.600                    15390.2
979.700                    15274.2
979.800                    15113.2
979.900                    15188
980.000                    15037
980.100                    15035.8
980.200                    15071.2
980.300                    14835
980.400                    15039.2
980.500                    14946
980.600                    14824
980.700                    14731
980.800                    14833.5
980.900                    14961
981.000                    15078.8
981.100                    14880.5
981.200                    14774.8
981.300                    14872.8
981.400                    15019.5
981.500                    14846
981.600                    14922.8
981.700                    14864.8
981.800                    14949
981.900                    14934.5
982.000                    14844.5
982.100                    14861.8
982.200                    14881.8
982.300                    14947.5
982.400                    14899
982.500                    14863.8
982.600                    14805.8
982.700                    15045.2
982.800                    14981
982.900                    14966
983.000                    14855.5
983.100                    15063.8
983.200                    14930.2
983.300                    14872.8
983.400                    14878.5
983.500                    14918.5
983.600                    15074