File: ITO_Radiator/XPS--6_1-O1s.txt
# Transition                      O 1s
# Notes
# Creation Comment
# Energy Mode                     KE
# Start Energy in eV              715.6
# End Energy in eV                738.6
# Energy Step in eV               0.1
# Number Of Sweeps                10
# Dwell Time per Sweep in s       0.3
# Analyser Mode                   CAE
# Pass Energy in eV/Retard Ratio  25
# Magnification                   high
# Divide Voltages By 10           off
# Excitation Source               Mg Ka 1253.6 eV normal
# Excitation Energy in eV         1253.6
# Analyser Workfunction in eV     4.5
# Entrance Slit                   6 x 12 mm
# Exit Slit                       5 x 11 mm
#
#
# Kinetic Energy in eV         Counts
# --------------------         ------
715.600                    59889.8
715.700                    59760
715.800                    60087
715.900                    59615.5
716.000                    59720.2
716.100                    59795.5
716.200                    59852.2
716.300                    59743.5
716.400                    60009.2
716.500                    60045.2
716.600                    59208
716.700                    59438.5
716.800                    59654
716.900                    59575
717.000                    59566.2
717.100                    59845.5
717.200                    60054.2
717.300                    59378.5
717.400                    59513.2
717.500                    59339.5
717.600                    59180.5
717.700                    58811.5
717.800                    59467.2
717.900                    59061.8
718.000                    59277.8
718.100                    59408.8
718.200                    59492
718.300                    59613
718.400                    59512
718.500                    59503.5
718.600                    59709.8
718.700                    60192.5
718.800                    59864.8
718.900                    60294.5
719.000                    60478.2
719.100                    60843.5
719.200                    60863.2
719.300                    61645.8
719.400                    61507.5
719.500                    62311.2
719.600                    62571
719.700                    63943.5
719.800                    64367.2
719.900                    65685.5
720.000                    66155.8
720.100                    67018.2
720.200                    68350.8
720.300                    69717.2
720.400                    71611.5
720.500                    72816.5
720.600                    74392.5
720.700                    76187.8
720.800                    77168
720.900                    78762.8
721.000                    80122
721.100                    81404.5
721.200                    82665
721.300                    83276.8
721.400                    84370.2
721.500                    85226
721.600                    85916.8
721.700                    86215.2
721.800                    87317.5
721.900                    87679
722.000                    88511.5
722.100                    88940.8
722.200                    89744.2
722.300                    91139
722.400                    91946.5
722.500                    92727.8
722.600                    93728.2
722.700                    95356.5
722.800                    96499.5
722.900                    96709
723.000                    98364.8
723.100                    98545.8
723.200                    98598.8
723.300                    98496.8
723.400                    97625
723.500                    96513
723.600                    94753.5
723.700                    92295
723.800                    89667
723.900                    86785.8
724.000                    84295.8
724.100                    80682
724.200                    77544
724.300                    74535.2
724.400                    71603.2
724.500                    69199.2
724.600                    67302.2
724.700                    65763.2
724.800                    63710
724.900                    63105.8
725.000                    61705.8
725.100                    60936
725.200                    60243
725.300                    59941
725.400                    59368.2
725.500                    59326
725.600                    59058.5
725.700                    58755
725.800                    58336.5
725.900                    58299.8
726.000                    58244
726.100                    58184.5
726.200                    58284
726.300                    58221.8
726.400                    58299.8
726.500                    58148.5
726.600                    57850.5
726.700                    57986.2
726.800                    57805.5
726.900                    58122
727.000                    58386.5
727.100                    57811
727.200                    57998
727.300                    58067.8
727.400                    57589.5
727.500                    57975.5
727.600                    58120
727.700                    57658.2
727.800                    57539.8
727.900                    57699.2
728.000                    58077
728.100                    58114.5
728.200                    58068.5
728.300                    58365.5
728.400                    57919.2
728.500                    57898
728.600                    57849.8
728.700                    58135.5
728.800                    58374.8
728.900                    58333
729.000                    58518
729.100                    58642.8
729.200                    58638.2
729.300                    59010.5
729.400                    58640.8
729.500                    58824.8
729.600                    59057
729.700                    59156
729.800                    58894
729.900                    59352.2
730.000                    59183
730.100                    59377.5
730.200                    59520.5
730.300                    59699
730.400                    59527.8
730.500                    59550.2
730.600                    59951
730.700                    60116
730.800                    60521.5
730.900                    60458
731.000                    60683
731.100                    60643.2
731.200                    60681
731.300                    61121.5
731.400                    61586
731.500                    61486
731.600                    61491.8
731.700                    61427.2
731.800                    61211.5
731.900                    61411.5
732.000                    61623.5
732.100                    61126
732.200                    61415.8
732.300                    61020
732.400                    60504.5
732.500                    60349.5
732.600                    60527.8
732.700                    60332
732.800                    60333.5
732.900                    60235.2
733.000                    60045.2
733.100                    59876.2
733.200                    59703.8
733.300                    59564.2
733.400                    59574.5
733.500                    59778.8
733.600                    59403.5
733.700                    59141
733.800                    59154.5
733.900                    58889
734.000                    58763.8
734.100                    58989
734.200                    58831.5
734.300                    58324.2
734.400                    58376
734.500                    57740.2
734.600                    57591.8
734.700                    57856
734.800                    57384.5
734.900                    56950.8
735.000                    57019.8
735.100                    57181.8
735.200                    57619.8
735.300                    57487.5
735.400                    57133.2
735.500                    56899.8
735.600                    56881.2
735.700                    57196.5
735.800                    56462.8
735.900                    56777.5
736.000                    57015.2
736.100                    56668.5
736.200                    56887.2
736.300                    57027.2
736.400                    56835
736.500                    56627.8
736.600                    56941.5
736.700                    56946.5
736.800                    56913.5
736.900                    56790.8
737.000                    56886
737.100                    56996.8
737.200                    57127
737.300                    57016.8
737.400                    57061
737.500                    56890.5
737.600                    56680.2
737.700                    56828
737.800                    56954.2
737.900                    57015.8
738.000                    57126.8
738.100                    57269
738.200                    57042.2
738.300                    57263.5
738.400                    56894.2
738.500                    57223.5
738.600                    57209.5