File: ITO_Radiator/XPS--2_1-wide.txt
# Transition                      wide
# Notes
# Creation Comment
# Energy Mode                     KE
# Start Energy in eV              150
# End Energy in eV                1260
# Energy Step in eV               0.5
# Number Of Sweeps                1
# Dwell Time per Sweep in s       0.2
# Analyser Mode                   CAE
# Pass Energy in eV/Retard Ratio  50
# Magnification                   high
# Divide Voltages By 10           off
# Excitation Source               Mg Ka 1253.6 eV normal
# Excitation Energy in eV         1253.6
# Analyser Workfunction in eV     4.5
# Entrance Slit                   6 x 12 mm
# Exit Slit                       5 x 11 mm
#
#
# Kinetic Energy in eV         Counts
# --------------------         ------
150.000                    56133.5
154.000                    55694.9
158.000                    54734.1
162.000                    55022.1
166.000                    54316.3
170.000                    53768.7
174.000                    53599.4
178.000                    53419.2
182.000                    52804.1
186.000                    52177.1
190.000                    52831
194.000                    51518.7
198.000                    51315.7
202.000                    50946.5
206.000                    50986.2
210.000                    50479.8
214.000                    50225
218.000                    49861.8
222.000                    49865
226.000                    49659.9
230.000                    49120.5
234.000                    49113.7
238.000                    49629.2
242.000                    48929.5
246.000                    48947.2
250.000                    48464.9
254.000                    48723.9
258.000                    49390.3
262.000                    48748.5
266.000                    47743.5
270.000                    46298.3
274.000                    44995.7
278.000                    44440.3
282.000                    44430.1
286.000                    43826
290.000                    43932.5
294.000                    43780.8
298.000                    43144.4
302.000                    42962.7
306.000                    41746.2
310.000                    41921.1
314.000                    41306.1
318.000                    41235.4
322.000                    40878.9
326.000                    40729.8
330.000                    40364.1
334.000                    39778.3
338.000                    40018.7
342.000                    39249.4
346.000                    38052.7
350.000                    36928.3
354.000                    36588.7
358.000                    36115.5
362.000                    35723.5
366.000                    35798.9
370.000                    35531.8
374.000                    35804.2
378.000                    35538.2
382.000                    35550.4
386.000                    34635.8
390.000                    33611.5
394.000                    33528.4
398.000                    38279
402.000                    36709.8
406.000                    35333.7
410.000                    29857
414.000                    27752.8
418.000                    27379.4
422.000                    27863
426.000                    28223.2
430.000                    26956.7
434.000                    26255.5
438.000                    25461.2
442.000                    25264.7
446.000                    25376.9
450.000                    25432.7
454.000                    25467.8
458.000                    25360.1
462.000                    25222.6
466.000                    25597.8
470.000                    25433
474.000                    25550.7
478.000                    25151.4
482.000                    25241.8
486.000                    25445.8
490.000                    25702.2
494.000                    25313.5
498.000                    24516
502.000                    23650.2
506.000                    24284.8
510.000                    25881.7
514.000                    24610.9
518.000                    22622.6
522.000                    21303.4
526.000                    20904.7
530.000                    20713.2
534.000                    21024.9
538.000                    21032.3
542.000                    20351.7
546.000                    20533.3
550.000                    22685
554.000                    19809.5
558.000                    20038.7
562.000                    19767.9
566.000                    19273.4
570.000                    19119.6
574.000                    18501.6
578.000                    17871.2
582.000                    17679.3
586.000                    22158.3
590.000                    19054.2
594.000                    17361.7
598.000                    17043.3
602.000                    16198.9
606.000                    16250.3
610.000                    15915.7
614.000                    15877.5
618.000                    15915.1
622.000                    15973.9
626.000                    15993.1
630.000                    15715.4
634.000                    15991.8
638.000                    15574.4
642.000                    15748
646.000                    16014.2
650.000                    16021.1
654.000                    15669.6
658.000                    15799.8
662.000                    15420.1
666.000                    15607.6
670.000                    15693.6
674.000                    15410.2
678.000                    15300.3
682.000                    15559.6
686.000                    15701.6
690.000                    15413.1
694.000                    15563.4
698.000                    15657.2
702.000                    15821.8
706.000                    15661
710.000                    14931.5
714.000                    14291.1
718.000                    14408.8
722.000                    22104.9
726.000                    13934.4
730.000                    14211.9
734.000                    13816.2
738.000                    13493.5
742.000                    13706.8
746.000                    13495.2
750.000                    13230.5
754.000                    13119.5
758.000                    15436.1
762.000                    12998.5
766.000                    15907.9
770.000                    12928.2
774.000                    12832.7
778.000                    13192.3
782.000                    13414.5
786.000                    13154.4
790.000                    12363.4
794.000                    10367.1
798.000                     9863.9
802.000                    20973.9
806.000                     9338.7
810.000                    19289.3
814.000                     4863.4
818.000                     7043.4
822.000                     3918.3
826.000                     3907.9
830.000                     3679.7
834.000                     3464.5
838.000                     3519
842.000                     3366.7
846.000                     3416.1
850.000                     3467.7
854.000                     3437.5
858.000                     3339
862.000                     3208.4
866.000                     3245.1
870.000                     3186.5
874.000                     3131.8
878.000                     3208.4
882.000                     3126
886.000                     3230.8
890.000                     3160
894.000                     3210.2
898.000                     3194.3
902.000                     3181.5
906.000                     3162.7
910.000                     3213.7
914.000                     3296.6
918.000                     3311.3
922.000                     3333.1
926.000                     3319.7
930.000                     3299.4
934.000                     3293.1
938.000                     3359.4
942.000                     3272.6
946.000                     3408.8
950.000                     3418.7
954.000                     3384.7
958.000                     3212.3
962.000                     3125
966.000                     3898.9
970.000                     3593.5
974.000                     3096
978.000                     3311
982.000                     2905.4
986.000                     2937.1
990.000                     3010
994.000                     2937.7
998.000                     2932
1002.000                    2925.2
1006.000                    2984.1
1010.000                    2972.5
1014.000                    2913.9
1018.000                    2965.4
1022.000                    2929
1026.000                    2922.7
1030.000                    2894.8
1034.000                    3088
1038.000                    2909.3
1042.000                    3162.7
1046.000                    2951.5
1050.000                    2914.5
1054.000                    3002.7
1058.000                    2887.8
1062.000                    2878
1066.000                    2871.2
1070.000                    2930.4
1074.000                    2875.2
1078.000                    2833.8
1082.000                    2890.9
1086.000                    2825.2
1090.000                    2907.9
1094.000                    2927.2
1098.000                    3088.6
1102.000                    3142.6
1106.000                    2917.5
1110.000                    2947.6
1114.000                    2998.9
1118.000                    2866.8
1122.000                    2909.4
1126.000                    2990.3
1130.000                    3384.2
1134.000                    2916.3
1138.000                    2971
1142.000                    3000.9
1146.000                    2890.7
1150.000                    3096.9
1154.000                    2869.9
1158.000                    2942
1162.000                    2892.9
1166.000                    2961.5
1170.000                    2986.8
1174.000                    3067.6
1178.000                    2740.7
1182.000                    2571.3
1186.000                    2293.9
1190.000                    2126.6
1194.000                    2044.3
1198.000                    2069.8
1202.000                    2164.7
1206.000                    2128.8
1210.000                    2168.6
1214.000                    2292.8
1218.000                    2167.7
1222.000                    1946.5
1226.000                    2280.8
1230.000                    1787.4
1234.000                    4988
1238.000                    1637.5
1242.000                    1357.1
1246.000                    1545.9
1250.000                    1092.7
1254.000                     954.5000
1258.000                     892.6000
1260.000                     874.4000