File: ITO_Radiator/XPS--10_1-In3d.txt
# Transition                      In 3d
# Notes
# Creation Comment
# Energy Mode                     KE
# Start Energy in eV              793.6
# End Energy in eV                833.6
# Energy Step in eV               0.1
# Number Of Sweeps                2
# Dwell Time per Sweep in s       0.3
# Analyser Mode                   CAE
# Pass Energy in eV/Retard Ratio  25
# Magnification                   high
# Divide Voltages By 10           off
# Excitation Source               Mg Ka 1253.6 eV normal
# Excitation Energy in eV         1253.6
# Analyser Workfunction in eV     4.5
# Entrance Slit                   6 x 12 mm
# Exit Slit                       5 x 11 mm
#
#
# Kinetic Energy in eV         Counts
# --------------------         ------
793.600                    12914.8
793.800                    12906.5
794.000                    12930.2
794.200                    12902
794.400                    12741.5
794.600                    12689.8
794.800                    12812
795.000                    12597
795.200                    12533
795.400                    12512.5
795.600                    12569.5
795.800                    12476.8
796.000                    12504.5
796.200                    12426
796.400                    12368.8
796.600                    12478.5
796.800                    12432.5
797.000                    12534
797.200                    12654
797.400                    12658
797.600                    12576.2
797.800                    12657.8
798.000                    12878.5
798.200                    12859.5
798.400                    13039.2
798.600                    13561.5
798.800                    13998
799.000                    15020.2
799.200                    16277.8
799.400                    18106
799.600                    21110.8
799.800                    25036.5
800.000                    29777.2
800.200                    36707.8
800.400                    43901
800.600                    50186.8
800.800                    56693.8
801.000                    60437
801.200                    60125.8
801.400                    56140
801.600                    49842.2
801.800                    41761.2
802.000                    33320.8
802.200                    26063
802.400                    20687
802.600                    16964
802.800                    14578.2
803.000                    12802.2
803.200                    11637.5
803.400                    11079.2
803.600                    10539
803.800                    10291.5
804.000                     9797.75
804.200                     9812.75
804.400                     9457.75
804.600                     9323.75
804.800                     9480
805.000                     9433.5
805.200                     9493.5
805.400                     9593.25
805.600                     9810.75
805.800                    10128
806.000                    10706.8
806.200                    11346.8
806.400                    12478.8
806.600                    13775.5
806.800                    15940
807.000                    19022.5
807.200                    23748
807.400                    29901.8
807.600                    37583.5
807.800                    47405
808.000                    57832.8
808.200                    67981
808.400                    76338.2
808.600                    80378
808.800                    80219.2
809.000                    74443
809.200                    65018.2
809.400                    54043.5
809.600                    42256.5
809.800                    32284
810.000                    25056.5
810.200                    19851.8
810.400                    16366
810.600                    14033.8
810.800                    12492.2
811.000                    11582
811.200                    11025.8
811.400                    10426.8
811.600                     9691.25
811.800                     9076.75
812.000                     8638.25
812.200                     7934.75
812.400                     7382.25
812.600                     6970.25
812.800                     6607.25
813.000                     6368.75
813.200                     6372.25
813.400                     6064.25
813.600                     6081.5
813.800                     5871.75
814.000                     5770
814.200                     5650
814.400                     5563
814.600                     5448.5
814.800                     5332.25
815.000                     5438
815.200                     5397.5
815.400                     5516.75
815.600                     5715.25
815.800                     6180.5
816.000                     6556.25
816.200                     7437.25
816.400                     8067.75
816.600                     8778.25
816.800                     9518.5
817.000                    10106
817.200                    10136.5
817.400                     9989
817.600                     9923
817.800                     9553.75
818.000                     9153.25
818.200                     9023.75
818.400                     9017.5
818.600                     8828.25
818.800                     8878
819.000                     8586
819.200                     8420.25
819.400                     8022.75
819.600                     7230.5
819.800                     6652.75
820.000                     6080.25
820.200                     5495.5
820.400                     5086.5
820.600                     4733
820.800                     4431.5
821.000                     4399.25
821.200                     4316.5
821.400                     4194.5
821.600                     4201.75
821.800                     4160.5
822.000                     4073
822.200                     4054.25
822.400                     3950.5
822.600                     3791.75
822.800                     3846.75
823.000                     3784
823.200                     3798.25
823.400                     3710.75
823.600                     3688.75
823.800                     3733.75
824.000                     3755.75
824.200                     3747.5
824.400                     3726.75
824.600                     3730
824.800                     3806
825.000                     3817.25
825.200                     3872.25
825.400                     3906
825.600                     3951.5
825.800                     3850.75
826.000                     3920
826.200                     4053
826.400                     3957.75
826.600                     3944.75
826.800                     3978.25
827.000                     3965.25
827.200                     3849
827.400                     3789
827.600                     3835.75
827.800                     3853
828.000                     3872.25
828.200                     3790
828.400                     3783.75
828.600                     3748.75
828.800                     3843.25
829.000                     3716.5
829.200                     3832.75
829.400                     3780.75
829.600                     3762.5
829.800                     3719
830.000                     3713.75
830.200                     3728
830.400                     3663.5
830.600                     3638.25
830.800                     3554.25
831.000                     3525.75
831.200                     3518.5
831.400                     3591.5
831.600                     3469
831.800                     3385.5
832.000                     3455.75
832.200                     3454
832.400                     3429.75
832.600                     3467.75
832.800                     3366.75
833.000                     3395.25
833.200                     3379
833.400                     3380.75
833.600                     3431.25