File: ITO_Radiator/XPS--11_1-Sn3d.txt
# Transition                      Sn 3d
# Notes
# Creation Comment
# Energy Mode                     KE
# Start Energy in eV              749.6
# End Energy in eV                779.6
# Energy Step in eV               0.1
# Number Of Sweeps                8
# Dwell Time per Sweep in s       0.3
# Analyser Mode                   CAE
# Pass Energy in eV/Retard Ratio  25
# Magnification                   high
# Divide Voltages By 10           off
# Excitation Source               Mg Ka 1253.6 eV normal
# Excitation Energy in eV         1253.6
# Analyser Workfunction in eV     4.5
# Entrance Slit                   6 x 12 mm
# Exit Slit                       5 x 11 mm
#
#
# Kinetic Energy in eV         Counts
# --------------------         ------
749.600                    54213
749.800                    54470.5
750.000                    54267.8
750.200                    54604.2
750.400                    54513.8
750.600                    54629.8
750.800                    54123
751.000                    54731.8
751.200                    54579.5
751.400                    54561.5
751.600                    54530.8
751.800                    54053.8
752.000                    54664.2
752.200                    54299.8
752.400                    54070.8
752.600                    54414
752.800                    54393.8
753.000                    53917.2
753.200                    53906.8
753.400                    54341
753.600                    53843
753.800                    54182
754.000                    53978.8
754.200                    54085.2
754.400                    53866.2
754.600                    53962.8
754.800                    54120.8
755.000                    53573.8
755.200                    53992.2
755.400                    54006.8
755.600                    54049.2
755.800                    53976
756.000                    54411
756.200                    54353.5
756.400                    54513.2
756.600                    55323.2
756.800                    56338.5
757.000                    57339.2
757.200                    59113.2
757.400                    61372
757.600                    64134.5
757.800                    67142.5
758.000                    70409.8
758.200                    72981
758.400                    75103
758.600                    75886.8
758.800                    74569.8
759.000                    71940.8
759.200                    69086.8
759.400                    64970.5
759.600                    61431
759.800                    58837
760.000                    56823.8
760.200                    55161
760.400                    54141
760.600                    53639.8
760.800                    52985.8
761.000                    52939
761.200                    52386.5
761.400                    52355.8
761.600                    52341
761.800                    52368.8
762.000                    52039.2
762.200                    52137.8
762.400                    52324.5
762.600                    51808
762.800                    52193.8
763.000                    51829.5
763.200                    52070.8
763.400                    52116.2
763.600                    52277.5
763.800                    52724.2
764.000                    52136
764.200                    52083.2
764.400                    52795
764.600                    52858.5
764.800                    53720.2
765.000                    54175.5
765.200                    55759
765.400                    57676.5
765.600                    59935.2
765.800                    63183
766.000                    67395
766.200                    72256.2
766.400                    77059.2
766.600                    82077.5
766.800                    85075.8
767.000                    86381.2
767.200                    84652.2
767.400                    81476.5
767.600                    76823.2
767.800                    71389.5
768.000                    66423
768.200                    62489
768.400                    59094
768.600                    56949.5
768.800                    55643.2
769.000                    54902.8
769.200                    53587.2
769.400                    53037.8
769.600                    52919.2
769.800                    52228
770.000                    52497
770.200                    52006
770.400                    51958
770.600                    51800.8
770.800                    51387.2
771.000                    51600.8
771.200                    51431.2
771.400                    51156
771.600                    51408.5
771.800                    51477.5
772.000                    51428.2
772.200                    51933.2
772.400                    51484.8
772.600                    51717.2
772.800                    51593
773.000                    51696.8
773.200                    51417
773.400                    51626
773.600                    51465.5
773.800                    51689.2
774.000                    52097.8
774.200                    52485.2
774.400                    52122.5
774.600                    52837
774.800                    53275.5
775.000                    53912.8
775.200                    53988.2
775.400                    54458
775.600                    54186
775.800                    54557.2
776.000                    54422
776.200                    53940.2
776.400                    54441.2
776.600                    54002.2
776.800                    53991.8
777.000                    53868.2
777.200                    53743.8
777.400                    54387.8
777.600                    53345.2
777.800                    53716.8
778.000                    53791.8
778.200                    53060.5
778.400                    53054.2
778.600                    52834.8
778.800                    52935.2
779.000                    53295.2
779.200                    53015
779.400                    53297.8
779.600                    53275.2