File: ITO_Radiator/XPS--9_1-wide.txt
# Transition                      wide
# Notes
# Creation Comment
# Energy Mode                     KE
# Start Energy in eV              150
# End Energy in eV                1260
# Energy Step in eV               0.5
# Number Of Sweeps                1
# Dwell Time per Sweep in s       0.2
# Analyser Mode                   CAE
# Pass Energy in eV/Retard Ratio  50
# Magnification                   high
# Divide Voltages By 10           off
# Excitation Source               Mg Ka 1253.6 eV normal
# Excitation Energy in eV         1253.6
# Analyser Workfunction in eV     4.5
# Entrance Slit                   6 x 12 mm
# Exit Slit                       5 x 11 mm
#
#
# Kinetic Energy in eV         Counts
# --------------------         ------
150.000                    92533.6
154.000                    91917.6
158.000                    91418.1
162.000                    90458
166.000                    87903.1
170.000                    86734.3
174.000                    85484.3
178.000                    84359.3
182.000                    84615.6
186.000                    82841
190.000                    81605.4
194.000                    80956.8
198.000                    79488.3
202.000                    78321.2
206.000                    78156.4
210.000                    78641
214.000                    77859.4
218.000                    76997.5
222.000                    76121.3
226.000                    75457.6
230.000                    76224.4
234.000                    75323.1
238.000                    75003.5
242.000                    73901.7
246.000                    73417.3
250.000                    72733.9
254.000                    72486.5
258.000                    73264.7
262.000                    73726.1
266.000                    73011.8
270.000                    70258.2
274.000                    68377.4
278.000                    67779.5
282.000                    68484.6
286.000                    68750.2
290.000                    68586.8
294.000                    69723.1
298.000                    67253.6
302.000                    65914.2
306.000                    64001.4
310.000                    64954.4
314.000                    65896.5
318.000                    66648.3
322.000                    66883.9
326.000                    66434.1
330.000                    67326.3
334.000                    67753.8
338.000                    65478.6
342.000                    60101.6
346.000                    54459.9
350.000                    49478.4
354.000                    45741.5
358.000                    46573.7
362.000                    45039.1
366.000                    44115.6
370.000                    43080.7
374.000                    43118.1
378.000                    42798.1
382.000                    43141.7
386.000                    43644.1
390.000                    44121
394.000                    46935.9
398.000                    63412.9
402.000                    57440.5
406.000                    54578.5
410.000                    37186.5
414.000                    33107.2
418.000                    33156.5
422.000                    34085.3
426.000                    35850.1
430.000                    31788.4
434.000                    31966.2
438.000                    31111.2
442.000                    29155.7
446.000                    27955.7
450.000                    27838.4
454.000                    27872.2
458.000                    27912.3
462.000                    27490.3
466.000                    27322.5
470.000                    27912.1
474.000                    29004.8
478.000                    29823.4
482.000                    28941
486.000                    29362.7
490.000                    29434
494.000                    28841.1
498.000                    27994.1
502.000                    27924.6
506.000                    29474.3
510.000                    32054.6
514.000                    29457.7
518.000                    25561.3
522.000                    23645.3
526.000                    24095.1
530.000                    24263.5
534.000                    25677.5
538.000                    27686.5
542.000                    26087
546.000                    27270.6
550.000                    33282.7
554.000                    25763.4
558.000                    25298.6
562.000                    24178.7
566.000                    24000.6
570.000                    24267.2
574.000                    24160.1
578.000                    24159.2
582.000                    24266.3
586.000                    34991.8
590.000                    27244.6
594.000                    23005
598.000                    22628.9
602.000                    21406.8
606.000                    20998.4
610.000                    20209.3
614.000                    19777.9
618.000                    19630.3
622.000                    20013
626.000                    20581.2
630.000                    21316.9
634.000                    21079.8
638.000                    20510.5
642.000                    20621.2
646.000                    20446.1
650.000                    20161.7
654.000                    20232.9
658.000                    20251.4
662.000                    19639.7
666.000                    20318.8
670.000                    20521.8
674.000                    20796.7
678.000                    20685.6
682.000                    21103.2
686.000                    21197
690.000                    20696.2
694.000                    20734.4
698.000                    20653.7
702.000                    21176
706.000                    21678.3
710.000                    20570
714.000                    20139.6
718.000                    19736.9
722.000                    32433
726.000                    19336.6
730.000                    19176.7
734.000                    19502.7
738.000                    18517.6
742.000                    18691.7
746.000                    18571.1
750.000                    18360.7
754.000                    18497.8
758.000                    24121.7
762.000                    18251.1
766.000                    24314.4
770.000                    18018.5
774.000                    18043.4
778.000                    18295.4
782.000                    18737.1
786.000                    18885.6
790.000                    19084.8
794.000                    17965
798.000                    18409.5
802.000                    47812.6
806.000                    17974
810.000                    41749.1
814.000                     7941.1
818.000                    13023.8
822.000                     5369.3
826.000                     5279.9
830.000                     4830.4
834.000                     4534.3
838.000                     4460.7
842.000                     4313.7
846.000                     4216
850.000                     4130.6
854.000                     4060.3
858.000                     3872.2
862.000                     3683.3
866.000                     3638.5
870.000                     3670.3
874.000                     3676.4
878.000                     3705.6
882.000                     3612.3
886.000                     3615.1
890.000                     3582.5
894.000                     3581.4
898.000                     3520.6
902.000                     3540.4
906.000                     3515.2
910.000                     3504.4
914.000                     3587.1
918.000                     3499.9
922.000                     3531
926.000                     3563.2
930.000                     3421
934.000                     3567.9
938.000                     3458.2
942.000                     3437.5
946.000                     3384.6
950.000                     3323.3
954.000                     3362.6
958.000                     3355
962.000                     3269.4
966.000                     3490
970.000                     3583.8
974.000                     3320.2
978.000                     3278
982.000                     3220.5
986.000                     3092.6
990.000                     3322.4
994.000                     3186.5
998.000                     3188.8
1002.000                    3239.1
1006.000                    3204.6
1010.000                    3329.6
1014.000                    3180.6
1018.000                    3233
1022.000                    3204.6
1026.000                    3192.4
1030.000                    3159.3
1034.000                    3411.6
1038.000                    3191.6
1042.000                    3471.7
1046.000                    3089.6
1050.000                    3155.9
1054.000                    3227.9
1058.000                    3062.7
1062.000                    3145.1
1066.000                    3026.7
1070.000                    3125.8
1074.000                    3127.2
1078.000                    3140.5
1082.000                    3095.2
1086.000                    3144.1
1090.000                    3145.5
1094.000                    3198.5
1098.000                    3158.5
1102.000                    3202.5
1106.000                    3269.1
1110.000                    3258.6
1114.000                    3372.5
1118.000                    3219.7
1122.000                    3271.7
1126.000                    3308.5
1130.000                    3890.1
1134.000                    3309.2
1138.000                    3127.5
1142.000                    3238.3
1146.000                    3203
1150.000                    3350.6
1154.000                    3358.7
1158.000                    3337.7
1162.000                    3563
1166.000                    3736.6
1170.000                    3922.3
1174.000                    4065.5
1178.000                    3416
1182.000                    2963.3
1186.000                    2493
1190.000                    2319
1194.000                    2280.9
1198.000                    2248.6
1202.000                    2219.5
1206.000                    2290.2
1210.000                    2342.8
1214.000                    2396.3
1218.000                    2374.8
1222.000                    2394.9
1226.000                    2858.1
1230.000                    2491.8
1234.000                    7440.5
1238.000                    2073.8
1242.000                    1638.1
1246.000                    2005.6
1250.000                    1287.7
1254.000                     972.5000
1258.000                     964.6000
1260.000                     899.8000