File: ITO_Radiator/XPS--12_1-C1s.txt
# Transition                      C 1s
# Notes
# Creation Comment
# Energy Mode                     KE
# Start Energy in eV              957.6
# End Energy in eV                983.6
# Energy Step in eV               0.1
# Number Of Sweeps                15
# Dwell Time per Sweep in s       0.3
# Analyser Mode                   CAE
# Pass Energy in eV/Retard Ratio  25
# Magnification                   high
# Divide Voltages By 10           off
# Excitation Source               Mg Ka 1253.6 eV normal
# Excitation Energy in eV         1253.6
# Analyser Workfunction in eV     4.5
# Entrance Slit                   6 x 12 mm
# Exit Slit                       5 x 11 mm
#
#
# Kinetic Energy in eV         Counts
# --------------------         ------
957.600                    22606
957.700                    22933.5
957.800                    22551.5
957.900                    22757
958.000                    22602.5
958.100                    22528.8
958.200                    22724.8
958.300                    22557.5
958.400                    22740
958.500                    22716.8
958.600                    22548.5
958.700                    22410
958.800                    22311
958.900                    22632
959.000                    22576
959.100                    22509.2
959.200                    22599.2
959.300                    22524
959.400                    22711.8
959.500                    22754.8
959.600                    22808.2
959.700                    22711.8
959.800                    22659.2
959.900                    22635.5
960.000                    22612.2
960.100                    22480
960.200                    22736.2
960.300                    22678.8
960.400                    22627.2
960.500                    22681
960.600                    22525.2
960.700                    22788.8
960.800                    22796.8
960.900                    22730.5
961.000                    22725.5
961.100                    22648.2
961.200                    22728.2
961.300                    22535.2
961.400                    22670.2
961.500                    22882.5
961.600                    22600.8
961.700                    22766
961.800                    22754.2
961.900                    22769.8
962.000                    22714.5
962.100                    22788
962.200                    22709.2
962.300                    22927.5
962.400                    22784.2
962.500                    22950
962.600                    22831.5
962.700                    22810.2
962.800                    22827.8
962.900                    23000.8
963.000                    23018
963.100                    23011
963.200                    23005.2
963.300                    23036.8
963.400                    22770.2
963.500                    22970.5
963.600                    23045.2
963.700                    23147.5
963.800                    23083
963.900                    23273.5
964.000                    23299.8
964.100                    23318.5
964.200                    23382.5
964.300                    23373
964.400                    23459.5
964.500                    23356.2
964.600                    23227.2
964.700                    23598.2
964.800                    23370.8
964.900                    23111.2
965.000                    23078
965.100                    23015.2
965.200                    23297.8
965.300                    23302.2
965.400                    23228.5
965.500                    23317.2
965.600                    23077
965.700                    23063.5
965.800                    23179.5
965.900                    23154.8
966.000                    23390.5
966.100                    23393.2
966.200                    23408.5
966.300                    23825.2
966.400                    23672.8
966.500                    23682.5
966.600                    23809
966.700                    24141.8
966.800                    24237
966.900                    24282
967.000                    24928.8
967.100                    25035.8
967.200                    25011.2
967.300                    25682.8
967.400                    26208.8
967.500                    26901.2
967.600                    27208.8
967.700                    27587.2
967.800                    28121.2
967.900                    28421.5
968.000                    28893
968.100                    29211
968.200                    29658.2
968.300                    29915.2
968.400                    29864
968.500                    29858
968.600                    29598
968.700                    29576.5
968.800                    29142.5
968.900                    28873.8
969.000                    28054.2
969.100                    27569.5
969.200                    26880.2
969.300                    26435.2
969.400                    25843.5
969.500                    25320.2
969.600                    24891.8
969.700                    24619
969.800                    24011.2
969.900                    23659.8
970.000                    23673.5
970.100                    23354.5
970.200                    23382.2
970.300                    22761.8
970.400                    22460.5
970.500                    22321
970.600                    22379
970.700                    22302
970.800                    22297
970.900                    22103.2
971.000                    22086.2
971.100                    22124
971.200                    21890.5
971.300                    22095.8
971.400                    21984.2
971.500                    21750
971.600                    21784
971.700                    21834.2
971.800                    21893
971.900                    21807.5
972.000                    22108
972.100                    22006
972.200                    22020.2
972.300                    21952
972.400                    21863.8
972.500                    21731.2
972.600                    21794.2
972.700                    22032.2
972.800                    21749.5
972.900                    21869
973.000                    21959.5
973.100                    21982
973.200                    21891.2
973.300                    21877.8
973.400                    21661.5
973.500                    21947.5
973.600                    22180.5
973.700                    22184.5
973.800                    21997.8
973.900                    21917
974.000                    21830
974.100                    22000
974.200                    21869.8
974.300                    21778.8
974.400                    21879.2
974.500                    21837.5
974.600                    21961.2
974.700                    21955
974.800                    21744
974.900                    21818.8
975.000                    21812.8
975.100                    21828.2
975.200                    21955
975.300                    21717.5
975.400                    21958.8
975.500                    22189
975.600                    22080.5
975.700                    21977.8
975.800                    22002.5
975.900                    21819.8
976.000                    22033.2
976.100                    22085.2
976.200                    22220.5
976.300                    22373.5
976.400                    22416.2
976.500                    22244.2
976.600                    22300
976.700                    22270.5
976.800                    22401.5
976.900                    22442.2
977.000                    22449.2
977.100                    22285
977.200                    22209.2
977.300                    22519.2
977.400                    22307.2
977.500                    22264
977.600                    22206
977.700                    22156.8
977.800                    22202
977.900                    22311.2
978.000                    22335.2
978.100                    22364.8
978.200                    22377
978.300                    22282
978.400                    22214.8
978.500                    22353.8
978.600                    22171.8
978.700                    21960
978.800                    21946.2
978.900                    22128.5
979.000                    22151.8
979.100                    21966.2
979.200                    22174.2
979.300                    22024.5
979.400                    22168.2
979.500                    21917
979.600                    21861.5
979.700                    21968.8
979.800                    21848.8
979.900                    22017.2
980.000                    22021.2
980.100                    21905
980.200                    21542.8
980.300                    21795.2
980.400                    21796.2
980.500                    21657
980.600                    21640.2
980.700                    21752.8
980.800                    21813.5
980.900                    21729.5
981.000                    21698
981.100                    21948.5
981.200                    21723.5
981.300                    21764.8
981.400                    21595.2
981.500                    21650.2
981.600                    21531
981.700                    21420.8
981.800                    21605.2
981.900                    21705.8
982.000                    21995.2
982.100                    21827
982.200                    21764.2
982.300                    21572
982.400                    21550.5
982.500                    21802
982.600                    21800.5
982.700                    21802
982.800                    21672
982.900                    21755.8
983.000                    21920.5
983.100                    21833
983.200                    21769
983.300                    21696.5
983.400                    21801.8
983.500                    21749.5
983.600                    21838