File: SS_Graphit33/XPS--1_1-Wide.txt
# Transition                      wide
# Notes
# Creation Comment
# Energy Mode                     KE
# Start Energy in eV              150
# End Energy in eV                1260
# Energy Step in eV               0.5
# Number Of Sweeps                1
# Dwell Time per Sweep in s       0.3
# Analyser Mode                   CAE
# Pass Energy in eV/Retard Ratio  50
# Magnification                   high
# Divide Voltages By 10           off
# Excitation Source               Mg Ka 1253.6 eV normal
# Excitation Energy in eV         1253.6
# Analyser Workfunction in eV     4.5
# Entrance Slit                   6 x 12 mm
# Exit Slit                       5 x 11 mm
#
#
# Kinetic Energy in eV         Counts
# --------------------         ------
150.000                    18404.7
154.000                    18115.5
158.000                    18275.1
162.000                    18044.5
166.000                    17916.8
170.000                    17932.9
174.000                    17590.2
178.000                    17429.3
182.000                    17434.9
186.000                    17367.5
190.000                    17083
194.000                    17248.8
198.000                    17160.1
202.000                    16871.1
206.000                    17000.7
210.000                    16975
214.000                    17001.6
218.000                    16781
222.000                    16824.8
226.000                    16621.9
230.000                    16663.8
234.000                    16838
238.000                    18374.7
242.000                    17665.8
246.000                    16582.5
250.000                    16091.5
254.000                    16819.1
258.000                    17527.4
262.000                    16956.4
266.000                    16082.8
270.000                    14440.2
274.000                    12368.8
278.000                    10607.7
282.000                     9367.6
286.000                     8979.6
290.000                     8822.1
294.000                     9082.3
298.000                     8949.9
302.000                     8973.4
306.000                     8843.7
310.000                     8877.2
314.000                     8833.7
318.000                     8765.8
322.000                     9021.7
326.000                     8803.1
330.000                     8829.1
334.000                     8679.7
338.000                     8648.9
342.000                     8626.1
346.000                     8705
350.000                     8411
354.000                     8083.6
358.000                     8100
362.000                     7957.1
366.000                     7656
370.000                     7767.8
374.000                     7640
378.000                     7792.7
382.000                     7562.9
386.000                     7564.3
390.000                     7718.3
394.000                     7480.8
398.000                     7551.2
402.000                     7514.4
406.000                     7769.6
410.000                     7650.7
414.000                     7641.2
418.000                     7696.9
422.000                     7646.9
426.000                     7636.6
430.000                     7461
434.000                     7591.9
438.000                     7540.6
442.000                     7794.1
446.000                     7700.3
450.000                     7843.4
454.000                     7761.5
458.000                     7751.7
462.000                     7705.5
466.000                     7864.4
470.000                     8013.9
474.000                     7808.6
478.000                     7871.8
482.000                     8118.3
486.000                     8324.8
490.000                     8179.6
494.000                     7987.3
498.000                     7728.1
502.000                     7725.8
506.000                     8551.6
510.000                     8910.2
514.000                     8330.5
518.000                     7062.6
522.000                     6294
526.000                     6187
530.000                     6087.3
534.000                     6076.7
538.000                     6022.6
542.000                     6059.1
546.000                     6054.3
550.000                     6049.3
554.000                     5894.7
558.000                     5975.9
562.000                     5880.1
566.000                     5941
570.000                     5811.9
574.000                     5762.3
578.000                     5813.3
582.000                     5757.9
586.000                     5809.1
590.000                     5764.5
594.000                     5808.5
598.000                     5839
602.000                     5697.8
606.000                     5716.8
610.000                     5785.7
614.000                     5767.2
618.000                     5715.9
622.000                     5695.1
626.000                     5688.1
630.000                     5764
634.000                     5756.7
638.000                     5744.1
642.000                     5732.4
646.000                     5771.8
650.000                     5763.7
654.000                     5860
658.000                     5719.4
662.000                     5658.8
666.000                     5581.2
670.000                     5685.3
674.000                     5819.9
678.000                     5661.7
682.000                     5687
686.000                     5653.5
690.000                     5672.8
694.000                     5854.1
698.000                     5936.2
702.000                     5725.5
706.000                     5487.8
710.000                     5258.7
714.000                     5188.5
718.000                     5901.9
722.000                     8904
726.000                     4925.3
730.000                     5439.7
734.000                     4737.4
738.000                     4703
742.000                     4653.3
746.000                     4778.1
750.000                     4687.3
754.000                     4728.9
758.000                     4741.1
762.000                     4623.7
766.000                     4670.4
770.000                     4761.5
774.000                     4749.3
778.000                     4589.3
782.000                     4703.2
786.000                     4688.5
790.000                     4557.6
794.000                     4700.5
798.000                     4728.5
802.000                     4769
806.000                     4647.2
810.000                     4716.3
814.000                     4634.2
818.000                     4701.8
822.000                     4757.3
826.000                     4818.1
830.000                     4797.1
834.000                     4779
838.000                     4805.2
842.000                     4719.9
846.000                     4817.2
850.000                     4908.2
854.000                     4948.3
858.000                     4868
862.000                     4947.4
866.000                     4912.3
870.000                     5028.2
874.000                     4963.7
878.000                     4989.4
882.000                     4884.2
886.000                     5033.3
890.000                     5077.3
894.000                     5108.7
898.000                     5173.8
902.000                     5275.2
906.000                     5222
910.000                     5330.9
914.000                     5249.7
918.000                     5185.7
922.000                     5108.6
926.000                     5214.2
930.000                     5385.7
934.000                     5780.4
938.000                     5835.1
942.000                     5792.9
946.000                     5237.3
950.000                     4509.6
954.000                     3710.6
958.000                     3572.2
962.000                     4180.1
966.000                     8275.1
970.000                    10442.1
974.000                     1930.5
978.000                     3125
982.000                      985.6000
986.000                     1029.6
990.000                      931.1000
994.000                      769.0000
998.000                      770.0000
1002.000                     715.7000
1006.000                     703.2000
1010.000                     725.1000
1014.000                     789.6000
1018.000                     725.0000
1022.000                     630.0000
1026.000                     636.5000
1030.000                     631.3000
1034.000                     656.0000
1038.000                     626.7000
1042.000                     585.9000
1046.000                     595.8000
1050.000                     601.3000
1054.000                     590.4000
1058.000                     626.1000
1062.000                     610.6000
1066.000                     604.0000
1070.000                     584.5000
1074.000                     578.6000
1078.000                     578.7000
1082.000                     577.6000
1086.000                     612.2000
1090.000                     619.5000
1094.000                     562.5000
1098.000                     606.5000
1102.000                     596.9000
1106.000                     545.5000
1110.000                     578.2000
1114.000                     599.4000
1118.000                     570.8000
1122.000                     541.4000
1126.000                     603.0000
1130.000                     571.2000
1134.000                     542.7000
1138.000                     579.2000
1142.000                     612.4000
1146.000                     528.5000
1150.000                     555.2000
1154.000                     499.7000
1158.000                     568.5000
1162.000                     566.6000
1166.000                     543.8000
1170.000                     546.4000
1174.000                     565.9000
1178.000                     530.8000
1182.000                     532.4000
1186.000                     518.2000
1190.000                     518.6000
1194.000                     529.1000
1198.000                     518.8000
1202.000                     627.4000
1206.000                     509.0000
1210.000                     469.0000
1214.000                     457.1000
1218.000                     475.2000
1222.000                     447.8000
1226.000                     526.0000
1230.000                     481.6000
1234.000                     551.8000
1238.000                     531.7000
1242.000                     485.3000
1246.000                     403.2000
1250.000                     334.4000
1254.000                     268.3000
1258.000                     265.8000
1260.000                     248.6000