File: SS_Graphit33/XPS--2_1-C1s.txt
# Transition                      C 1s
# Notes
# Creation Comment
# Energy Mode                     KE
# Start Energy in eV              957
# End Energy in eV                991
# Energy Step in eV               0.1
# Number Of Sweeps                3
# Dwell Time per Sweep in s       0.3
# Analyser Mode                   CAE
# Pass Energy in eV/Retard Ratio  25
# Magnification                   high
# Divide Voltages By 10           off
# Excitation Source               Mg Ka 1253.6 eV normal
# Excitation Energy in eV         1253.6
# Analyser Workfunction in eV     4.5
# Entrance Slit                   6 x 12 mm
# Exit Slit                       5 x 11 mm
#
#
# Kinetic Energy in eV         Counts
# --------------------         ------
957.000                     2594.25
957.200                     2690.75
957.400                     2678.75
957.600                     2654
957.800                     2741.25
958.000                     2764.5
958.200                     2646.75
958.400                     2703.5
958.600                     2826
958.800                     2766.5
959.000                     2753.75
959.200                     2895.75
959.400                     2824.25
959.600                     2798
959.800                     2831.75
960.000                     2811.75
960.200                     2782.5
960.400                     2818.25
960.600                     2904.75
960.800                     2884.75
961.000                     2976
961.200                     3031.5
961.400                     2989.25
961.600                     3140.75
961.800                     3219.25
962.000                     3305.75
962.200                     3232
962.400                     3294.25
962.600                     3331.25
962.800                     3381
963.000                     3323.75
963.200                     3472.25
963.400                     3309.5
963.600                     3363.25
963.800                     3382.25
964.000                     3526.25
964.200                     3505
964.400                     3575.5
964.600                     3726
964.800                     3931
965.000                     4042
965.200                     4275
965.400                     4504.5
965.600                     4827
965.800                     5090.5
966.000                     5677.75
966.200                     6050
966.400                     6794.5
966.600                     7692.25
966.800                     8368.75
967.000                     9073
967.200                     9611.75
967.400                     9875
967.600                    10232.2
967.800                    11003.8
968.000                    12270
968.200                    14385.2
968.400                    17527
968.600                    20676.5
968.800                    23504
969.000                    25265.2
969.200                    23965.5
969.400                    20418.2
969.600                    15023.2
969.800                    10138.5
970.000                     6545.75
970.200                     4417.25
970.400                     3250.25
970.600                     2649.25
970.800                     2194.75
971.000                     2105.25
971.200                     1852
971.400                     1740.5
971.600                     1650.25
971.800                     1584.5
972.000                     1572.75
972.200                     1522
972.400                     1429.25
972.600                     1512.75
972.800                     1487.75
973.000                     1422.75
973.200                     1439
973.400                     1473.25
973.600                     1556.75
973.800                     1513.5
974.000                     1572.5
974.200                     1488.75
974.400                     1470
974.600                     1549
974.800                     1591
975.000                     1580
975.200                     1594
975.400                     1587.75
975.600                     1651.5
975.800                     1699.75
976.000                     1761.5
976.200                     1791.5
976.400                     1912.75
976.600                     2049.25
976.800                     2363.75
977.000                     2702.25
977.200                     2772.25
977.400                     2963.25
977.600                     2997.25
977.800                     2769.5
978.000                     2542.25
978.200                     2282.25
978.400                     2120.5
978.600                     2030
978.800                     2027.25
979.000                     2106.5
979.200                     2131
979.400                     2041.25
979.600                     1971
979.800                     1722.5
980.000                     1503.75
980.200                     1318.5
980.400                     1050.25
980.600                      992.5000
980.800                      891.0000
981.000                      840.5000
981.200                      825.7500
981.400                      799.5000
981.600                      794.2500
981.800                      793.7500
982.000                      765.5000
982.200                      763.7500
982.400                      780.2500
982.600                      758.5000
982.800                      756.0000
983.000                      770.0000
983.200                      773.7500
983.400                      767.5000
983.600                      747.2500
983.800                      812.5000
984.000                      775.7500
984.200                      751.5000
984.400                      783.2500
984.600                      772.7500
984.800                      798.2500
985.000                      803.7500
985.200                      833.7500
985.400                      772.5000
985.600                      816.2500
985.800                      844.2500
986.000                      819.0000
986.200                      836.5000
986.400                      892.7500
986.600                      808.5000
986.800                      843.0000
987.000                      857.7500
987.200                      804.0000
987.400                      791.2500
987.600                      803.2500
987.800                      773.0000
988.000                      794.7500
988.200                      779.5000
988.400                      728.0000
988.600                      837.0000
988.800                      805.0000
989.000                      786.2500
989.200                      812.0000
989.400                      770.2500
989.600                      781.5000
989.800                      763.7500
990.000                      706.5000
990.200                      712.0000
990.400                      742.7500
990.600                      697.5000
990.800                      739.0000
991.000                      735.7500