File: AbuDhabi_data/XPS_UPS_data/LuncoSimulant_LHS-1_powder/XPS--10_O1s.txt
# Transition                      O 1s
# Notes
# Creation Comment
# Energy Mode                     KE
# Start Energy in eV              703.6
# End Energy in eV                728.6
# Energy Step in eV               0.1
# Number Of Sweeps                3
# Dwell Time per Sweep in s       0.3
# Analyser Mode                   CAE
# Pass Energy in eV/Retard Ratio  25
# Magnification                   high
# Divide Voltages By 10           off
# Excitation Source               Mg Ka 1253.6 eV normal
# Excitation Energy in eV         1253.6
# Analyser Workfunction in eV     4.5
# Entrance Slit                   6 x 12 mm
# Exit Slit                       5 x 11 mm
#
#
# Kinetic Energy in eV         Counts
# --------------------         ------
703.600                     2598.25
703.700                     2506.75
703.800                     2594.75
703.900                     2538.5
704.000                     2572
704.100                     2631.25
704.200                     2591
704.300                     2587.25
704.400                     2401.5
704.500                     2450
704.600                     2543.5
704.700                     2577.25
704.800                     2471.25
704.900                     2503.75
705.000                     2471.75
705.100                     2472.5
705.200                     2416
705.300                     2462.75
705.400                     2340.5
705.500                     2458.75
705.600                     2501.25
705.700                     2443.75
705.800                     2424.5
705.900                     2426
706.000                     2424.75
706.100                     2459.25
706.200                     2493
706.300                     2371.25
706.400                     2349.25
706.500                     2331.25
706.600                     2382.25
706.700                     2393
706.800                     2421.25
706.900                     2389.75
707.000                     2386.75
707.100                     2356
707.200                     2352.5
707.300                     2257
707.400                     2274.75
707.500                     2278
707.600                     2250.75
707.700                     2331
707.800                     2345.25
707.900                     2321.25
708.000                     2280.5
708.100                     2218.75
708.200                     2230.75
708.300                     2293.25
708.400                     2319.75
708.500                     2262.75
708.600                     2277
708.700                     2259.25
708.800                     2280
708.900                     2255.5
709.000                     2236
709.100                     2263.25
709.200                     2324.75
709.300                     2341.5
709.400                     2304.75
709.500                     2290.25
709.600                     2292.75
709.700                     2276.75
709.800                     2385.5
709.900                     2323.25
710.000                     2255.25
710.100                     2331.25
710.200                     2396
710.300                     2355.75
710.400                     2341.25
710.500                     2510.75
710.600                     2517
710.700                     2591
710.800                     2531.5
710.900                     2564.75
711.000                     2676.25
711.100                     2739.5
711.200                     2818.75
711.300                     2928.5
711.400                     3031.25
711.500                     3186.25
711.600                     3225.5
711.700                     3500.75
711.800                     3630.5
711.900                     3941.25
712.000                     4106.5
712.100                     4358.25
712.200                     4586.75
712.300                     4901.5
712.400                     5140
712.500                     5382.5
712.600                     5653
712.700                     5971.5
712.800                     6313.5
712.900                     6555.75
713.000                     6837.75
713.100                     7049.5
713.200                     7185
713.300                     7341.75
713.400                     7384.5
713.500                     7483.25
713.600                     7497.25
713.700                     7571.75
713.800                     7515.75
713.900                     7524.25
714.000                     7245.25
714.100                     7047.25
714.200                     6900.75
714.300                     6693
714.400                     6472.75
714.500                     6212.75
714.600                     5977
714.700                     5762.75
714.800                     5456
714.900                     5279.25
715.000                     5083.25
715.100                     4848.75
715.200                     4644.75
715.300                     4403.25
715.400                     4284.25
715.500                     4110
715.600                     3971.75
715.700                     3828.5
715.800                     3717.75
715.900                     3646.5
716.000                     3546
716.100                     3429.75
716.200                     3372
716.300                     3272
716.400                     3144
716.500                     3210
716.600                     3054
716.700                     2976
716.800                     2847.75
716.900                     2792
717.000                     2706.25
717.100                     2695.75
717.200                     2643.5
717.300                     2609.25
717.400                     2434.25
717.500                     2560.25
717.600                     2494
717.700                     2425.5
717.800                     2407.5
717.900                     2318.25
718.000                     2349.75
718.100                     2327.5
718.200                     2315.75
718.300                     2233
718.400                     2299
718.500                     2232.25
718.600                     2327.75
718.700                     2273
718.800                     2292.75
718.900                     2369
719.000                     2285.25
719.100                     2314.75
719.200                     2300.75
719.300                     2258
719.400                     2232
719.500                     2337.25
719.600                     2287.25
719.700                     2275.5
719.800                     2361.25
719.900                     2322.25
720.000                     2305.5
720.100                     2360
720.200                     2430.75
720.300                     2402.75
720.400                     2369
720.500                     2467.75
720.600                     2444.5
720.700                     2439
720.800                     2546.75
720.900                     2497.25
721.000                     2484.5
721.100                     2622.25
721.200                     2592
721.300                     2598.5
721.400                     2662.75
721.500                     2614
721.600                     2583.5
721.700                     2640.5
721.800                     2628.25
721.900                     2656
722.000                     2650.25
722.100                     2709
722.200                     2690
722.300                     2631.5
722.400                     2652.25
722.500                     2639.25
722.600                     2664.75
722.700                     2684.5
722.800                     2758.75
722.900                     2676.25
723.000                     2698
723.100                     2607
723.200                     2630.25
723.300                     2590.75
723.400                     2611
723.500                     2538.5
723.600                     2532.75
723.700                     2482.25
723.800                     2513.75
723.900                     2553.25
724.000                     2473.5
724.100                     2429.25
724.200                     2397.5
724.300                     2444.75
724.400                     2309.25
724.500                     2323.75
724.600                     2313.5
724.700                     2268
724.800                     2272.25
724.900                     2255.25
725.000                     2202.25
725.100                     2147.25
725.200                     2170.5
725.300                     2171
725.400                     2123.75
725.500                     2110.5
725.600                     2113.5
725.700                     2067.25
725.800                     2063.25
725.900                     2018.25
726.000                     2040.5
726.100                     2031.25
726.200                     2036
726.300                     2045.75
726.400                     2011.5
726.500                     2025.75
726.600                     1982.5
726.700                     1943
726.800                     1960.75
726.900                     2013
727.000                     1926.5
727.100                     1965.25
727.200                     2014.75
727.300                     1897.75
727.400                     1919.75
727.500                     1944.25
727.600                     2000.25
727.700                     1991
727.800                     1863
727.900                     1883
728.000                     1863.75
728.100                     1982.75
728.200                     1976.25
728.300                     1983.25
728.400                     1996.5
728.500                     1941
728.600                     1874