File: AbuDhabi_data/XPS_UPS_data/LuncoSimulant_LHS-1_powder/XPS--5_Ca2p.txt
# Transition                      Ca 2p
# Notes
# Creation Comment
# Energy Mode                     KE
# Start Energy in eV              883.6
# End Energy in eV                908.6
# Energy Step in eV               0.1
# Number Of Sweeps                35
# Dwell Time per Sweep in s       0.3
# Analyser Mode                   CAE
# Pass Energy in eV/Retard Ratio  25
# Magnification                   high
# Divide Voltages By 10           off
# Excitation Source               Mg Ka 1253.6 eV normal
# Excitation Energy in eV         1253.6
# Analyser Workfunction in eV     4.5
# Entrance Slit                   6 x 12 mm
# Exit Slit                       5 x 11 mm
#
#
# Kinetic Energy in eV         Counts
# --------------------         ------
883.600                    16315.2
883.700                    16452.5
883.800                    16360
883.900                    16473.8
884.000                    16354.2
884.100                    16427.8
884.200                    16355
884.300                    16298
884.400                    16374.5
884.500                    16316
884.600                    16454
884.700                    16236.5
884.800                    16361.8
884.900                    16492.2
885.000                    16419
885.100                    16240.8
885.200                    16347
885.300                    16520
885.400                    16349.5
885.500                    16449.2
885.600                    16161.5
885.700                    16107.2
885.800                    16198.5
885.900                    16338.2
886.000                    16118.5
886.100                    16127.8
886.200                    16250.5
886.300                    16496.5
886.400                    16306.5
886.500                    16263
886.600                    16379
886.700                    16300.8
886.800                    16164.2
886.900                    16191.5
887.000                    16249.2
887.100                    16169.2
887.200                    16450.5
887.300                    16606.5
887.400                    16367.5
887.500                    16356.2
887.600                    16182.5
887.700                    16204.8
887.800                    16123.8
887.900                    16103.2
888.000                    16330
888.100                    16339
888.200                    16238.2
888.300                    16160
888.400                    16281.8
888.500                    16105.2
888.600                    16204.5
888.700                    16383.5
888.800                    16230.8
888.900                    16294
889.000                    16368
889.100                    16282.5
889.200                    16159.5
889.300                    16355.5
889.400                    16249.5
889.500                    16154.8
889.600                    16195
889.700                    16142.2
889.800                    16117.8
889.900                    16166.5
890.000                    16044.5
890.100                    16454.8
890.200                    16291.8
890.300                    16272.5
890.400                    16190
890.500                    15996
890.600                    16188.2
890.700                    16249.8
890.800                    16121.2
890.900                    16048.8
891.000                    16302.2
891.100                    16445.2
891.200                    16410.2
891.300                    16136
891.400                    16204.5
891.500                    16173.5
891.600                    16179
891.700                    16320
891.800                    16400.5
891.900                    16448.5
892.000                    16455.2
892.100                    16668.5
892.200                    16725
892.300                    16649
892.400                    16873
892.500                    16828.8
892.600                    16843.8
892.700                    16872
892.800                    16922.2
892.900                    17277
893.000                    17118
893.100                    17123
893.200                    17140.5
893.300                    17057.2
893.400                    17006.5
893.500                    17305.2
893.600                    17128.5
893.700                    16977
893.800                    16890
893.900                    16877.5
894.000                    16817.8
894.100                    16734
894.200                    17011.2
894.300                    17018.5
894.400                    16767.5
894.500                    16848.5
894.600                    16907.5
894.700                    16692.2
894.800                    16739.5
894.900                    16743.2
895.000                    16794.2
895.100                    16612.5
895.200                    16763.5
895.300                    17077
895.400                    17002.2
895.500                    17067.5
895.600                    17216.8
895.700                    17369.2
895.800                    17373.5
895.900                    17419.2
896.000                    17573.2
896.100                    17737.2
896.200                    17797.2
896.300                    17968.8
896.400                    18081
896.500                    18299.8
896.600                    18289.8
896.700                    18317
896.800                    18222.2
896.900                    18123.8
897.000                    18129
897.100                    18081.5
897.200                    18077
897.300                    18006.8
897.400                    18021
897.500                    18008
897.600                    17747.2
897.700                    17295.2
897.800                    17503.2
897.900                    17576.2
898.000                    17331.2
898.100                    17341
898.200                    17064.5
898.300                    17025
898.400                    17086
898.500                    16897
898.600                    16895.5
898.700                    16697.5
898.800                    16631
898.900                    16549.2
899.000                    16713.5
899.100                    16566.2
899.200                    16472.5
899.300                    16275
899.400                    16350.5
899.500                    16414.5
899.600                    16341.2
899.700                    16477.5
899.800                    16431.5
899.900                    16105.2
900.000                    16206.8
900.100                    16364.5
900.200                    16275.2
900.300                    16347.2
900.400                    16297.5
900.500                    16217.2
900.600                    16261.2
900.700                    16237
900.800                    16048.2
900.900                    16124
901.000                    16074.2
901.100                    16152.8
901.200                    16235
901.300                    16304.8
901.400                    16156.5
901.500                    16320.5
901.600                    16252.8
901.700                    16160.8
901.800                    15989.5
901.900                    16165
902.000                    16214.2
902.100                    16178.2
902.200                    16192.5
902.300                    16230.5
902.400                    16402
902.500                    16119
902.600                    16292.8
902.700                    16336.5
902.800                    16212
902.900                    16020.8
903.000                    15955
903.100                    16098
903.200                    16294
903.300                    16133.5
903.400                    16204.2
903.500                    16230.5
903.600                    16123.8
903.700                    16263.2
903.800                    16223.8
903.900                    16239.5
904.000                    16227.2
904.100                    16188
904.200                    16138.2
904.300                    16074.2
904.400                    16396.5
904.500                    16269.8
904.600                    16271.8
904.700                    16599
904.800                    16250.8
904.900                    16364.2
905.000                    16218.2
905.100                    16192.2
905.200                    16353
905.300                    16401
905.400                    16245.2
905.500                    16295.8
905.600                    16316.8
905.700                    16432.8
905.800                    16422
905.900                    16241.2
906.000                    16468
906.100                    16296.2
906.200                    16233.2
906.300                    16328.5
906.400                    16226.5
906.500                    16237.5
906.600                    16346.5
906.700                    16101.8
906.800                    15976.2
906.900                    16242.2
907.000                    16319.5
907.100                    16303
907.200                    16322
907.300                    16267.2
907.400                    16106.5
907.500                    16325
907.600                    16207
907.700                    16252.5
907.800                    16194.8
907.900                    16161.2
908.000                    16006.2
908.100                    16105.2
908.200                    16011.8
908.300                    16245.2
908.400                    16203
908.500                    16086.8
908.600                    16015.8