File: AbuDhabi_data/XPS_UPS_data/LuncoSimulant_LHS-1_powder/XPS--1_Wide1.txt
# Transition                      wide
# Notes
# Creation Comment
# Energy Mode                     KE
# Start Energy in eV              149.6
# End Energy in eV                1259.6
# Energy Step in eV               0.5
# Number Of Sweeps                1
# Dwell Time per Sweep in s       0.3
# Analyser Mode                   CAE
# Pass Energy in eV/Retard Ratio  50
# Magnification                   high
# Divide Voltages By 10           off
# Excitation Source               Mg Ka 1253.6 eV normal
# Excitation Energy in eV         1253.6
# Analyser Workfunction in eV     4.5
# Entrance Slit                   6 x 12 mm
# Exit Slit                       5 x 11 mm
#
#
# Kinetic Energy in eV         Counts
# --------------------         ------
149.600                    14884.9
153.600                    14585.9
157.600                    14705.1
161.600                    14273.6
165.600                    13947.2
169.600                    13714.9
173.600                    13853.8
177.600                    13567.2
181.600                    13311
185.600                    13368.5
189.600                    12983
193.600                    12748.2
197.600                    12670
201.600                    12687.5
205.600                    12672.7
209.600                    12481.2
213.600                    12118.9
217.600                    12367
221.600                    12206.1
225.600                    12254
229.600                    12404.2
233.600                    12439.9
237.600                    12239.6
241.600                    12336.5
245.600                    11971.6
249.600                    12035
253.600                    12435.9
257.600                    11989.3
261.600                    11598
265.600                    11166.2
269.600                    11058.8
273.600                    10645
277.600                    10411.1
281.600                    10514.7
285.600                    10586.9
289.600                    10444
293.600                    10320.7
297.600                    10398.8
301.600                    10188.9
305.600                     9970
309.600                    10156.3
313.600                    10111.2
317.600                     9952.7
321.600                    10196.9
325.600                    10055.1
329.600                    10089.8
333.600                     9888.3
337.600                    10000.7
341.600                     9875.4
345.600                     9964
349.600                     9831.6
353.600                     9885.6
357.600                     9715
361.600                     9717.1
365.600                     9761.3
369.600                     9837.4
373.600                     9901.1
377.600                     9702.1
381.600                     9505
385.600                     9606.1
389.600                     9489.2
393.600                     9503.3
397.600                     9433.2
401.600                     9370.9
405.600                     9374.5
409.600                     9257.5
413.600                     9367.3
417.600                     9161.2
421.600                     9325.5
425.600                     9046.7
429.600                     9266.1
433.600                     9264.8
437.600                     9346.9
441.600                     9355.2
445.600                     9325.8
449.600                     9280.3
453.600                     9366.1
457.600                     9500.6
461.600                     9531.2
465.600                     9356.2
469.600                     9251.5
473.600                     9449.9
477.600                     9732.6
481.600                     9357.7
485.600                     8969.7
489.600                     8415.6
493.600                     8512.3
497.600                     9654.5
501.600                     9967.7
505.600                     8434.9
509.600                     7388.6
513.600                     6672.4
517.600                     6368
521.600                     6274
525.600                     6137.6
529.600                     6040.7
533.600                     6182.3
537.600                     5743.1
541.600                     5718.9
545.600                     5631.8
549.600                     5504.6
553.600                     5448.8
557.600                     5428.5
561.600                     5409.1
565.600                     5376.8
569.600                     5354.8
573.600                     5412
577.600                     5203.9
581.600                     5226.5
585.600                     5268.8
589.600                     5168.2
593.600                     5170.3
597.600                     4976.4
601.600                     5060.6
605.600                     4909.2
609.600                     4987.3
613.600                     4856.8
617.600                     4895.8
621.600                     4848.4
625.600                     4853
629.600                     4841
633.600                     4929
637.600                     4828.9
641.600                     4864.6
645.600                     4785.9
649.600                     4607.8
653.600                     4635.4
657.600                     4603.7
661.600                     4478.1
665.600                     4523.7
669.600                     4598.9
673.600                     4433.5
677.600                     4441.1
681.600                     4401.1
685.600                     4564.9
689.600                     4740.1
693.600                     4570.6
697.600                     4122.7
701.600                     3645.7
705.600                     3139.4
709.600                     3162.5
713.600                    10215.2
717.600                     3115.2
721.600                     3650.5
725.600                     2711.1
729.600                     2396
733.600                     2431.2
737.600                     2304.2
741.600                     2313.8
745.600                     2336.2
749.600                     2359
753.600                     2293.3
757.600                     2273.1
761.600                     2328.1
765.600                     2305.5
769.600                     2182.3
773.600                     2282.2
777.600                     2185.9
781.600                     2312.1
785.600                     2357.4
789.600                     2101.1
793.600                     1960
797.600                     2002.6
801.600                     1952.4
805.600                     1942.3
809.600                     1933
813.600                     1824.5
817.600                     1911.4
821.600                     1883.8
825.600                     1858.7
829.600                     1853.7
833.600                     1870.9
837.600                     1903.8
841.600                     1867.6
845.600                     1786.8
849.600                     1754.9
853.600                     1871.9
857.600                     1824.9
861.600                     1791.3
865.600                     1742.9
869.600                     1835.1
873.600                     1807.1
877.600                     1681.6
881.600                     1587.9
885.600                     1640.8
889.600                     1646.9
893.600                     1686.4
897.600                     1737.4
901.600                     1617.1
905.600                     1580.7
909.600                     1542
913.600                     1576.8
917.600                     1551.8
921.600                     1597.2
925.600                     1586.9
929.600                     1528.8
933.600                     1522.3
937.600                     1532.8
941.600                     1615.1
945.600                     1498.4
949.600                     1539.9
953.600                     1499
957.600                     1729.4
961.600                     1764.3
965.600                     1578.7
969.600                     1498
973.600                     1392
977.600                     1385.6
981.600                     1405.6
985.600                     1331.6
989.600                     1360.6
993.600                     1286.9
997.600                     1284.2
1001.600                    1356.5
1005.600                    1321.3
1009.600                    1283.2
1013.600                    1285.5
1017.600                    1350
1021.600                    1333
1025.600                    1278
1029.600                    1289.9
1033.600                    1306.5
1037.600                    1290.8
1041.600                    1274.9
1045.600                    1398.2
1049.600                    1315.9
1053.600                    1306.8
1057.600                    1344.1
1061.600                    1319.6
1065.600                    1327.8
1069.600                    1381.1
1073.600                    1311
1077.600                    1289
1081.600                    1252.8
1085.600                    1259.4
1089.600                    1720.9
1093.600                    1363.6
1097.600                    1295
1101.600                    1283.7
1105.600                    1267.7
1109.600                    1240.8
1113.600                    1265.4
1117.600                    1247.8
1121.600                    1231
1125.600                    1422.4
1129.600                    1256.2
1133.600                    1251.1
1137.600                    1100.6
1141.600                    1706.7
1145.600                    1097.3
1149.600                    1120.9
1153.600                    1153.5
1157.600                    1017.1
1161.600                     943.0000
1165.600                    1017
1169.600                    1369.8
1173.600                     957.5000
1177.600                     911.1000
1181.600                     870.9000
1185.600                     860.6000
1189.600                     819.0000
1193.600                     931.5000
1197.600                     844.2000
1201.600                     763.0000
1205.600                     795.8000
1209.600                     775.9000
1213.600                     761.8000
1217.600                     833.6000
1221.600                     803.9000
1225.600                     703.1000
1229.600                     716.8000
1233.600                     706.1000
1237.600                     737.4000
1241.600                     625.2000
1245.600                     621.3000
1249.600                     615.9000
1253.600                     661.0000
1257.600                     661.5000
1259.600                     584.0000