File: AbuDhabi_data/XPS_UPS_data/LuncoSimulant_LHS-1_powder/XPS--4_Ti2p.txt
# Transition                      Ti 2p
# Notes
# Creation Comment
# Energy Mode                     KE
# Start Energy in eV              771.6
# End Energy in eV                796.6
# Energy Step in eV               0.1
# Number Of Sweeps                30
# Dwell Time per Sweep in s       0.3
# Analyser Mode                   CAE
# Pass Energy in eV/Retard Ratio  25
# Magnification                   high
# Divide Voltages By 10           off
# Excitation Source               Mg Ka 1253.6 eV normal
# Excitation Energy in eV         1253.6
# Analyser Workfunction in eV     4.5
# Entrance Slit                   6 x 12 mm
# Exit Slit                       5 x 11 mm
#
#
# Kinetic Energy in eV         Counts
# --------------------         ------
771.600                    17728.5
771.700                    17675.2
771.800                    17657.5
771.900                    17507
772.000                    17499.5
772.100                    17564.5
772.200                    17663
772.300                    17719
772.400                    17552.2
772.500                    17717.2
772.600                    17622
772.700                    17652.2
772.800                    17864
772.900                    17600.8
773.000                    17659.8
773.100                    17668
773.200                    17862.5
773.300                    17869.5
773.400                    17689.2
773.500                    18028.2
773.600                    17931
773.700                    17941
773.800                    17829.8
773.900                    18054
774.000                    17809.5
774.100                    17754
774.200                    17582.5
774.300                    17551
774.400                    17518.8
774.500                    17745.5
774.600                    17728.8
774.700                    17666.2
774.800                    17673.8
774.900                    17519
775.000                    17678.2
775.100                    17735
775.200                    17620.8
775.300                    17521.2
775.400                    17353.2
775.500                    17460.8
775.600                    17375
775.700                    17255
775.800                    17167.8
775.900                    17309.8
776.000                    17294.8
776.100                    17356.8
776.200                    17400.2
776.300                    17423.5
776.400                    17334.8
776.500                    17285
776.600                    17238
776.700                    17271.2
776.800                    17456.8
776.900                    17329.5
777.000                    17045.8
777.100                    17256.5
777.200                    16950.8
777.300                    16943.5
777.400                    17019
777.500                    17247.2
777.600                    17165.5
777.700                    17116
777.800                    17047.2
777.900                    16939
778.000                    17028.2
778.100                    17285.5
778.200                    17220
778.300                    17388.5
778.400                    17112.2
778.500                    17070.8
778.600                    17015.2
778.700                    17034
778.800                    17244.5
778.900                    17328.8
779.000                    17268.5
779.100                    17249
779.200                    17343.5
779.300                    17252.2
779.400                    17198
779.500                    17316.8
779.600                    17473.2
779.700                    17287.2
779.800                    17342.5
779.900                    17457.8
780.000                    17664
780.100                    17760.2
780.200                    17871
780.300                    18014.8
780.400                    17862
780.500                    17736.8
780.600                    17973.2
780.700                    18184.8
780.800                    18107.8
780.900                    18314
781.000                    18405.5
781.100                    18319.5
781.200                    18496.5
781.300                    18270.5
781.400                    18382
781.500                    18548.8
781.600                    18554.5
781.700                    18437.5
781.800                    18214.2
781.900                    18383.8
782.000                    18352.8
782.100                    18417.5
782.200                    18175.5
782.300                    17956.8
782.400                    17919.5
782.500                    18034
782.600                    17824.8
782.700                    17724.2
782.800                    17847.5
782.900                    17740.8
783.000                    17622.5
783.100                    17614.5
783.200                    17661
783.300                    17621
783.400                    17468.2
783.500                    17511.2
783.600                    17333.8
783.700                    17369.5
783.800                    17280.8
783.900                    17254.5
784.000                    17304
784.100                    17062.2
784.200                    17189
784.300                    17191
784.400                    17092
784.500                    17252
784.600                    17057
784.700                    17106.5
784.800                    17230.2
784.900                    17122
785.000                    17204
785.100                    17268.8
785.200                    17184.8
785.300                    17363.5
785.400                    17411
785.500                    17377.8
785.600                    17617.5
785.700                    17586
785.800                    17686.8
785.900                    17884.8
786.000                    18069.2
786.100                    18240.8
786.200                    18470
786.300                    18806.8
786.400                    18855
786.500                    18925.2
786.600                    19515.2
786.700                    19733.8
786.800                    19999.2
786.900                    20216.8
787.000                    20383.5
787.100                    20707
787.200                    20569.8
787.300                    20654.5
787.400                    20448.8
787.500                    20202.5
787.600                    20140.5
787.700                    19773.2
787.800                    19710
787.900                    19544
788.000                    19001
788.100                    18786.2
788.200                    18507
788.300                    18177
788.400                    18203.2
788.500                    17970.8
788.600                    17736.2
788.700                    17475
788.800                    17379.2
788.900                    17300.2
789.000                    17096.2
789.100                    17102.2
789.200                    17012
789.300                    16945.5
789.400                    16732.5
789.500                    16623
789.600                    16881.8
789.700                    16820.5
789.800                    16706.8
789.900                    16402.8
790.000                    16374.8
790.100                    16484
790.200                    16605.5
790.300                    16403.8
790.400                    16243.8
790.500                    16259
790.600                    16238
790.700                    16227.8
790.800                    16260.8
790.900                    16363.8
791.000                    16023.8
791.100                    16178.2
791.200                    16405.5
791.300                    16355.2
791.400                    16095.8
791.500                    16129.5
791.600                    16125.5
791.700                    15994.5
791.800                    16242.8
791.900                    16285.5
792.000                    16092.2
792.100                    16081.8
792.200                    16049.8
792.300                    16114.2
792.400                    16089
792.500                    16132.8
792.600                    16168.8
792.700                    15967.5
792.800                    16042.8
792.900                    16008
793.000                    15864.8
793.100                    15869.5
793.200                    15868.5
793.300                    15975.8
793.400                    15774
793.500                    15904.2
793.600                    15875.5
793.700                    15889.2
793.800                    15938.5
793.900                    15934.2
794.000                    15821.8
794.100                    15687.8
794.200                    15941.5
794.300                    15849.8
794.400                    15918.5
794.500                    15806
794.600                    16027.5
794.700                    15966.5
794.800                    16038
794.900                    15890.2
795.000                    16117.8
795.100                    16127.5
795.200                    15955.8
795.300                    16041.5
795.400                    16004.8
795.500                    16077.8
795.600                    16061
795.700                    16033.2
795.800                    16032.8
795.900                    15969.8
796.000                    16160
796.100                    15981.8
796.200                    15896.8
796.300                    15916.8
796.400                    16070.8
796.500                    16154.8
796.600                    15894.5