File: AbuDhabi_data/XPS_UPS_data/LuncoSimulant_LHS-1_powder/XPS--14_Cutoff High.txt
# Transition
# Notes
# Creation Comment
# Energy Mode                     KE
# Start Energy in eV              10
# End Energy in eV                33
# Energy Step in eV               0.05
# Number Of Sweeps                1
# Dwell Time per Sweep in s       0.2
# Analyser Mode                   CAE
# Pass Energy in eV/Retard Ratio  5
# Magnification                   high
# Divide Voltages By 10           on
# Excitation Source               Mg Ka 1253.6 eV normal
# Excitation Energy in eV         1253.6
# Analyser Workfunction in eV     4.5
# Entrance Slit                   6 x 12 mm
# Exit Slit                       5 x 11 mm
#
#
# Kinetic Energy in eV         Counts
# --------------------         ------
10.000                    138754
10.100                    134236
10.200                    130783
10.300                    125559
10.400                    120832
10.500                    116824
10.600                    113036
10.700                    109881
10.800                    107260
10.900                    104572
11.000                    101710
11.100                     99818
11.200                     97483.5
11.300                     95641
11.400                     94400.9
11.500                     92841.2
11.600                     91594
11.700                     90206.7
11.800                     88740.9
11.900                     87144.2
12.000                     85316.3
12.100                     84455.6
12.200                     83658.3
12.300                     82325.8
12.400                     81071.4
12.500                     80865.3
12.600                     80051.4
12.700                     79535.4
12.800                     78788.1
12.900                     78259.2
13.000                     78156.9
13.100                     78187.9
13.200                     78183.9
13.300                     78252.6
13.400                     79594.3
13.500                     80994.7
13.600                     82611.6
13.700                     85895.8
13.800                     91181.5
13.900                    101898
14.000                    121337
14.100                    147028
14.200                    168996
14.300                    183740
14.400                    191833
14.500                    193252
14.600                    192466
14.700                    190372
14.800                    187382
14.900                    183037
15.000                    178856
15.100                    174517
15.200                    169254
15.300                    163809
15.400                    158485
15.500                    153414
15.600                    146939
15.700                    140672
15.800                    134909
15.900                    128489
16.000                    123017
16.100                    117294
16.200                    112879
16.300                    107478
16.400                    102074
16.500                     97405.4
16.600                     93513.4
16.700                     89129.7
16.800                     85007.3
16.900                     80601.6
17.000                     77305.7
17.100                     73833
17.200                     70579.8
17.300                     66623.4
17.400                     64369
17.500                     61913.2
17.600                     59261.3
17.700                     55994.5
17.800                     53880.4
17.900                     51709.7
18.000                     49482.1
18.100                     48032.8
18.200                     45885.4
18.300                     43993
18.400                     42098.5
18.500                     40955.6
18.600                     39107.1
18.700                     37671.4
18.800                     36029.5
18.900                     34657.1
19.000                     33300.1
19.100                     32137.1
19.200                     31002.4
19.300                     29628.7
19.400                     28628.3
19.500                     27453.7
19.600                     26922
19.700                     25943.1
19.800                     24929.4
19.900                     24049.8
20.000                     23418.8
20.100                     22536.8
20.200                     21811.3
20.300                     21289.5
20.400                     20315.2
20.500                     19668.4
20.600                     19040.6
20.700                     18325.5
20.800                     17882.4
20.900                     17346.9
21.000                     16772.7
21.100                     16279.5
21.200                     15915.2
21.300                     15226.7
21.400                     14937
21.500                     14476.6
21.600                     13882.4
21.700                     13451.2
21.800                     13082.3
21.900                     12810.7
22.000                     12459.8
22.100                     12162.9
22.200                     11779.2
22.300                     11587.5
22.400                     11284.7
22.500                     10848.1
22.600                     10605
22.700                     10343.5
22.800                     10232.6
22.900                      9768.5
23.000                      9628.6
23.100                      9325.2
23.200                      9263.6
23.300                      8930.9
23.400                      8807.5
23.500                      8412.7
23.600                      8224.9
23.700                      8073.2
23.800                      7943
23.900                      7656.2
24.000                      7413
24.100                      7310.1
24.200                      7064.3
24.300                      6967.1
24.400                      6790.7
24.500                      6667.4
24.600                      6454.5
24.700                      6465.8
24.800                      6122.8
24.900                      6029
25.000                      5998.2
25.100                      5869.3
25.200                      5751.3
25.300                      5641.3
25.400                      5467.2
25.500                      5314.4
25.600                      5249.6
25.700                      5117.8
25.800                      4974.1
25.900                      4918.7
26.000                      4881.5
26.100                      4755.1
26.200                      4705.2
26.300                      4480.9
26.400                      4427
26.500                      4375.6
26.600                      4281.4
26.700                      4187.1
26.800                      4128.9
26.900                      4033.3
27.000                      3906.6
27.100                      3923.5
27.200                      3808.3
27.300                      3797
27.400                      3782.7
27.500                      3599.2
27.600                      3577.1
27.700                      3461.7
27.800                      3340.9
27.900                      3337.2
28.000                      3247.6
28.100                      3172.7
28.200                      3217.4
28.300                      3203.6
28.400                      3027.1
28.500                      3052.3
28.600                      2934.1
28.700                      2928.2
28.800                      2879.5
28.900                      2794.3
29.000                      2720.9
29.100                      2712.3
29.200                      2677.9
29.300                      2707.5
29.400                      2671.1
29.500                      2563.1
29.600                      2544.5
29.700                      2481.2
29.800                      2462.9
29.900                      2425
30.000                      2431.2
30.100                      2293.4
30.200                      2317.7
30.300                      2197.4
30.400                      2130.3
30.500                      2187.8
30.600                      2158
30.700                      2074.5
30.800                      2096.5
30.900                      2065.2
31.000                      2117.4
31.100                      2021.5
31.200                      2026.3
31.300                      1919.4
31.400                      1933.8
31.500                      1885.5
31.600                      1886.8
31.700                      1761.5
31.800                      1858.7
31.900                      1748.3
32.000                      1767.2
32.100                      1807.4
32.200                      1702.7
32.300                      1674.1
32.400                      1667.6
32.500                      1643.7
32.600                      1659.4
32.700                      1557.1
32.800                      1628.1
32.900                      1574.4
33.000                      1504.2