File: AbuDhabi_data/XPS_UPS_data/LuncoSimulant_LHS-1_powder/XPS--6_Si2p.txt
# Transition                      Si 2p
# Notes
# Creation Comment
# Energy Mode                     KE
# Start Energy in eV              1133.6
# End Energy in eV                1158.6
# Energy Step in eV               0.1
# Number Of Sweeps                26
# Dwell Time per Sweep in s       0.3
# Analyser Mode                   CAE
# Pass Energy in eV/Retard Ratio  25
# Magnification                   high
# Divide Voltages By 10           off
# Excitation Source               Mg Ka 1253.6 eV normal
# Excitation Energy in eV         1253.6
# Analyser Workfunction in eV     4.5
# Entrance Slit                   6 x 12 mm
# Exit Slit                       5 x 11 mm
#
#
# Kinetic Energy in eV         Counts
# --------------------         ------
1133.600                   10296.8
1133.700                   10258.2
1133.800                   10161.2
1133.900                    9931.5
1134.000                   10025
1134.100                    9942.5
1134.200                    9923.25
1134.300                    9791.25
1134.400                    9873.25
1134.500                    9835.25
1134.600                    9807.5
1134.700                    9669
1134.800                    9523.25
1134.900                    9601
1135.000                    9500.5
1135.100                    9428
1135.200                    9371
1135.300                    9352.75
1135.400                    9433.5
1135.500                    9317
1135.600                    9164.25
1135.700                    9280.5
1135.800                    9324
1135.900                    9155.5
1136.000                    9173.5
1136.100                    9069.75
1136.200                    9158.75
1136.300                    9180.75
1136.400                    9225.25
1136.500                    8970.75
1136.600                    8987
1136.700                    9241.5
1136.800                    9138.5
1136.900                    9100.75
1137.000                    8865.75
1137.100                    8956.25
1137.200                    9040
1137.300                    8943.75
1137.400                    8858.5
1137.500                    8981.75
1137.600                    9061.75
1137.700                    8973.25
1137.800                    9037
1137.900                    9055.75
1138.000                    9015.75
1138.100                    8962.5
1138.200                    8996
1138.300                    9267.25
1138.400                    9192.75
1138.500                    9056.25
1138.600                    9263.5
1138.700                    9125.75
1138.800                    9254.5
1138.900                    9312.5
1139.000                    9379.75
1139.100                    9548.5
1139.200                    9600.25
1139.300                    9522
1139.400                    9755.25
1139.500                    9963.5
1139.600                   10210.8
1139.700                   10202
1139.800                   10383.8
1139.900                   10553.2
1140.000                   10807
1140.100                   11090.2
1140.200                   11342
1140.300                   11610.8
1140.400                   11963.5
1140.500                   12170.2
1140.600                   12467.8
1140.700                   12809.5
1140.800                   12926
1140.900                   13494.5
1141.000                   13645
1141.100                   13579
1141.200                   13778.2
1141.300                   13972.5
1141.400                   14201.5
1141.500                   14321.5
1141.600                   14111.8
1141.700                   14135
1141.800                   13845.2
1141.900                   13936.5
1142.000                   13651.5
1142.100                   13584.8
1142.200                   13248.2
1142.300                   13042.8
1142.400                   12563.8
1142.500                   12287.8
1142.600                   11937.5
1142.700                   11836.2
1142.800                   11531
1142.900                   11068
1143.000                   10882
1143.100                   10526.2
1143.200                   10450
1143.300                   10196.8
1143.400                   10051.8
1143.500                    9948.25
1143.600                    9688
1143.700                    9653.5
1143.800                    9501.25
1143.900                    9386.75
1144.000                    9474.75
1144.100                    9293.25
1144.200                    9152
1144.300                    9163.5
1144.400                    9129.75
1144.500                    8994.25
1144.600                    8973.5
1144.700                    8992.75
1144.800                    8809.75
1144.900                    8945.25
1145.000                    8957.25
1145.100                    8813
1145.200                    8871.5
1145.300                    8885.5
1145.400                    8713.25
1145.500                    8671.5
1145.600                    8744.5
1145.700                    8683.25
1145.800                    8900
1145.900                    8792
1146.000                    8739.75
1146.100                    8844.25
1146.200                    8802.25
1146.300                    8856.25
1146.400                    8799.5
1146.500                    8746
1146.600                    8705.5
1146.700                    8752.5
1146.800                    8807
1146.900                    8735.75
1147.000                    8721.25
1147.100                    8674.25
1147.200                    8599.25
1147.300                    8616.75
1147.400                    8637.75
1147.500                    8681.25
1147.600                    8798.25
1147.700                    8677.25
1147.800                    8728.75
1147.900                    8803.5
1148.000                    8600.5
1148.100                    8803
1148.200                    8709.25
1148.300                    8700.5
1148.400                    8694.25
1148.500                    8773
1148.600                    8828.75
1148.700                    8898.25
1148.800                    8941.5
1148.900                    8784.25
1149.000                    8727.75
1149.100                    8882
1149.200                    8809.5
1149.300                    8942.25
1149.400                    8979.75
1149.500                    9004.5
1149.600                    8996
1149.700                    8997.25
1149.800                    9080.75
1149.900                    9118.5
1150.000                    9039.5
1150.100                    9081.25
1150.200                    9131.25
1150.300                    9143.25
1150.400                    8875.5
1150.500                    9077
1150.600                    9029.75
1150.700                    9068.5
1150.800                    9003.75
1150.900                    9030.25
1151.000                    8966.25
1151.100                    9009
1151.200                    9049.25
1151.300                    9027.25
1151.400                    8886
1151.500                    9036.5
1151.600                    8957.75
1151.700                    8882.75
1151.800                    8964.25
1151.900                    8851.75
1152.000                    8895
1152.100                    8958.5
1152.200                    8670
1152.300                    8696.5
1152.400                    8875.5
1152.500                    8831
1152.600                    8786
1152.700                    8646.5
1152.800                    8697.75
1152.900                    8684
1153.000                    8704.75
1153.100                    8747
1153.200                    8816
1153.300                    8919
1153.400                    8942.25
1153.500                    8882.25
1153.600                    9007.5
1153.700                    9053.5
1153.800                    9036
1153.900                    9081
1154.000                    9320.75
1154.100                    9350.5
1154.200                    9390.5
1154.300                    9627.5
1154.400                    9737.5
1154.500                    9781
1154.600                    9881
1154.700                    9832.75
1154.800                    9819.75
1154.900                    9989.5
1155.000                   10008.2
1155.100                   10063.5
1155.200                    9943
1155.300                    9832.5
1155.400                    9995.25
1155.500                    9713.5
1155.600                    9740.5
1155.700                    9723
1155.800                    9551
1155.900                    9630.25
1156.000                    9500.75
1156.100                    9318.5
1156.200                    9246.25
1156.300                    9232.75
1156.400                    9128.75
1156.500                    8952.5
1156.600                    8924.5
1156.700                    8682.5
1156.800                    8699.25
1156.900                    8680.25
1157.000                    8610
1157.100                    8621.25
1157.200                    8439.25
1157.300                    8393.25
1157.400                    8371.25
1157.500                    8272.5
1157.600                    8325
1157.700                    8232
1157.800                    8285.75
1157.900                    8214.75
1158.000                    8205.5
1158.100                    8244
1158.200                    8059.25
1158.300                    8098
1158.400                    8187.25
1158.500                    8161
1158.600                    8134