File: AbuDhabi_data/XPS_UPS_data/LuncoSimulant_LHS-1_powder/XPS--12_Cutoff High.txt
# Transition
# Notes
# Creation Comment
# Energy Mode                     KE
# Start Energy in eV              10
# End Energy in eV                33
# Energy Step in eV               0.05
# Number Of Sweeps                1
# Dwell Time per Sweep in s       0.2
# Analyser Mode                   CAE
# Pass Energy in eV/Retard Ratio  5
# Magnification                   high
# Divide Voltages By 10           on
# Excitation Source               Mg Ka 1253.6 eV normal
# Excitation Energy in eV         1253.6
# Analyser Workfunction in eV     4.5
# Entrance Slit                   6 x 12 mm
# Exit Slit                       5 x 11 mm
#
#
# Kinetic Energy in eV         Counts
# --------------------         ------
10.000                    229211
10.100                    222632
10.200                    215474
10.300                    208986
10.400                    202165
10.500                    196285
10.600                    190693
10.700                    185238
10.800                    179510
10.900                    175129
11.000                    170642
11.100                    166090
11.200                    161967
11.300                    158388
11.400                    154448
11.500                    151439
11.600                    148978
11.700                    145584
11.800                    143238
11.900                    139655
12.000                    138326
12.100                    135027
12.200                    133004
12.300                    131639
12.400                    129306
12.500                    128676
12.600                    126908
12.700                    124942
12.800                    124046
12.900                    123407
13.000                    122995
13.100                    121272
13.200                    121368
13.300                    121135
13.400                    121196
13.500                    121962
13.600                    123285
13.700                    125620
13.800                    131200
13.900                    140001
14.000                    155497
14.100                    177866
14.200                    199584
14.300                    215570
14.400                    225532
14.500                    228234
14.600                    228217
14.700                    226394
14.800                    223676
14.900                    220410
15.000                    215732
15.100                    211484
15.200                    206421
15.300                    200819
15.400                    195035
15.500                    189301
15.600                    182341
15.700                    176473
15.800                    170362
15.900                    163136
16.000                    157577
16.100                    151515
16.200                    144949
16.300                    138932
16.400                    133180
16.500                    128074
16.600                    122449
16.700                    117817
16.800                    113234
16.900                    108205
17.000                    103663
17.100                     99475.7
17.200                     95883.1
17.300                     91452
17.400                     88507.6
17.500                     84908.5
17.600                     81372.7
17.700                     78710.9
17.800                     75981.3
17.900                     72324.8
18.000                     70065.2
18.100                     67338.7
18.200                     64586.8
18.300                     62415.7
18.400                     59857.3
18.500                     58117.8
18.600                     56188.8
18.700                     54362.5
18.800                     52231.3
18.900                     50526.2
19.000                     48703.2
19.100                     47041.4
19.200                     45500.1
19.300                     44073.8
19.400                     42719.9
19.500                     41004.8
19.600                     39477.6
19.700                     38597.2
19.800                     37494.5
19.900                     36188.4
20.000                     34872.1
20.100                     33931
20.200                     33010.7
20.300                     31723.7
20.400                     30915.7
20.500                     29462.5
20.600                     29314.9
20.700                     28290.2
20.800                     27360.4
20.900                     26626.3
21.000                     26036.4
21.100                     25187.1
21.200                     24327.7
21.300                     23904.4
21.400                     23126
21.500                     22422.8
21.600                     22096.1
21.700                     21341
21.800                     20675.7
21.900                     20319.8
22.000                     19868.7
22.100                     19475.4
22.200                     18613.6
22.300                     18243.9
22.400                     17893.8
22.500                     17568.1
22.600                     16990.4
22.700                     16715.9
22.800                     16256.5
22.900                     15757.3
23.000                     15491.3
23.100                     15048
23.200                     14745.6
23.300                     14726.6
23.400                     14037.7
23.500                     13921.1
23.600                     13574.5
23.700                     13470.9
23.800                     13044.3
23.900                     12626
24.000                     12353
24.100                     11969.2
24.200                     11866.7
24.300                     11597.2
24.400                     11433.4
24.500                     11185.6
24.600                     10954.2
24.700                     10608.9
24.800                     10546.1
24.900                     10283.9
25.000                     10007.6
25.100                      9732.6
25.200                      9546.5
25.300                      9276.4
25.400                      9140.3
25.500                      8973.5
25.600                      8882.3
25.700                      8737.8
25.800                      8460
25.900                      8355.7
26.000                      8215.8
26.100                      8155
26.200                      7913.1
26.300                      7720.4
26.400                      7603.4
26.500                      7522.3
26.600                      7379.9
26.700                      7133.3
26.800                      7163.9
26.900                      6870.4
27.000                      6763.6
27.100                      6618.4
27.200                      6507.4
27.300                      6540.8
27.400                      6515.7
27.500                      6211.3
27.600                      6268
27.700                      6044.4
27.800                      5856.7
27.900                      5695.8
28.000                      5726.1
28.100                      5691.7
28.200                      5539.8
28.300                      5490
28.400                      5501.2
28.500                      5370.8
28.600                      5265.3
28.700                      5179.3
28.800                      5101.6
28.900                      5093
29.000                      5005.9
29.100                      4901.7
29.200                      4798.3
29.300                      4721.9
29.400                      4599.8
29.500                      4504.4
29.600                      4458.4
29.700                      4400.2
29.800                      4491.3
29.900                      4202.2
30.000                      4247.7
30.100                      4185
30.200                      4085.7
30.300                      3997.5
30.400                      3919.7
30.500                      3868.8
30.600                      3848.3
30.700                      3898.3
30.800                      3748.2
30.900                      3752.8
31.000                      3671
31.100                      3754.1
31.200                      3578.7
31.300                      3662.3
31.400                      3465.1
31.500                      3393.6
31.600                      3362.9
31.700                      3280.7
31.800                      3358.5
31.900                      3305.6
32.000                      3190.1
32.100                      3153.9
32.200                      3213
32.300                      3109.7
32.400                      3076.6
32.500                      2902
32.600                      2979.2
32.700                      2993.6
32.800                      2858.2
32.900                      2897.4
33.000                      2837.7