File: AbuDhabi_data/XPS_UPS_data/LuncoSimulant_LHS-1_powder/XPS--7_C1s.txt
# Transition                      C 1s
# Notes
# Creation Comment
# Energy Mode                     KE
# Start Energy in eV              948.6
# End Energy in eV                978.6
# Energy Step in eV               0.1
# Number Of Sweeps                10
# Dwell Time per Sweep in s       0.3
# Analyser Mode                   CAE
# Pass Energy in eV/Retard Ratio  25
# Magnification                   high
# Divide Voltages By 10           off
# Excitation Source               Mg Ka 1253.6 eV normal
# Excitation Energy in eV         1253.6
# Analyser Workfunction in eV     4.5
# Entrance Slit                   6 x 12 mm
# Exit Slit                       5 x 11 mm
#
#
# Kinetic Energy in eV         Counts
# --------------------         ------
948.600                     4882.5
948.800                     4787
949.000                     4780.75
949.200                     4737.75
949.400                     4727.5
949.600                     4700.5
949.800                     4632.25
950.000                     4641.25
950.200                     4742.5
950.400                     4733.5
950.600                     4826.25
950.800                     4608
951.000                     4696.75
951.200                     4638.25
951.400                     4698.75
951.600                     4803
951.800                     4654.25
952.000                     4651.75
952.200                     4695.75
952.400                     4551.75
952.600                     4582.25
952.800                     4727.75
953.000                     4662
953.200                     4572
953.400                     4658.75
953.600                     4615.25
953.800                     4596.25
954.000                     4570.5
954.200                     4642.75
954.400                     4704
954.600                     4670.25
954.800                     4806.25
955.000                     4698.75
955.200                     4853.25
955.400                     4761
955.600                     4822.5
955.800                     4808
956.000                     4743.5
956.200                     4772.75
956.400                     4818.25
956.600                     4752
956.800                     4849.5
957.000                     4870.25
957.200                     4762
957.400                     4954
957.600                     4940
957.800                     5082.25
958.000                     5153
958.200                     5181
958.400                     5529.5
958.600                     5668
958.800                     5987.75
959.000                     6480
959.200                     6848.25
959.400                     7196.75
959.600                     7480.75
959.800                     7720
960.000                     7735
960.200                     7561.75
960.400                     7460
960.600                     7141.75
960.800                     6990
961.000                     6579
961.200                     6162.5
961.400                     5872.25
961.600                     5533
961.800                     5270.75
962.000                     5097
962.200                     4950.5
962.400                     4804.5
962.600                     4917.25
962.800                     4808.5
963.000                     4885.75
963.200                     4744.75
963.400                     4725
963.600                     4744
963.800                     4600.5
964.000                     4621.25
964.200                     4710
964.400                     4606.75
964.600                     4472
964.800                     4671.25
965.000                     4655.75
965.200                     4653.5
965.400                     4654.5
965.600                     4602.25
965.800                     4717.75
966.000                     4734.25
966.200                     4675.75
966.400                     4739.75
966.600                     4758.5
966.800                     4750.25
967.000                     4876
967.200                     4954.25
967.400                     5067.25
967.600                     5281.25
967.800                     5193
968.000                     5267.75
968.200                     5274.5
968.400                     5252
968.600                     5242.25
968.800                     5099
969.000                     4782.5
969.200                     4840.75
969.400                     4712.75
969.600                     4654.5
969.800                     4626.25
970.000                     4651.25
970.200                     4528.25
970.400                     4500.25
970.600                     4455.5
970.800                     4506.5
971.000                     4415.75
971.200                     4444.5
971.400                     4345.75
971.600                     4330.25
971.800                     4373.75
972.000                     4209.5
972.200                     4349.25
972.400                     4248.75
972.600                     4314
972.800                     4184.25
973.000                     4328.5
973.200                     4272.25
973.400                     4377.75
973.600                     4327.25
973.800                     4232.75
974.000                     4249.75
974.200                     4216.5
974.400                     4265.5
974.600                     4259.25
974.800                     4265
975.000                     4300.25
975.200                     4255
975.400                     4337.75
975.600                     4412.5
975.800                     4350.25
976.000                     4301.75
976.200                     4307.5
976.400                     4430.25
976.600                     4402.5
976.800                     4297.75
977.000                     4431
977.200                     4296.25
977.400                     4351
977.600                     4329
977.800                     4331.75
978.000                     4334.75
978.200                     4432.25
978.400                     4384
978.600                     4433