File: AbuDhabi_data/XPS_UPS_data/LuncoSimulant_LHS-1_powder/XPS--11_Al2p.txt
# Transition                      Al 2p
# Notes
# Creation Comment
# Energy Mode                     KE
# Start Energy in eV              1158.6
# End Energy in eV                1183.6
# Energy Step in eV               0.1
# Number Of Sweeps                41
# Dwell Time per Sweep in s       0.3
# Analyser Mode                   CAE
# Pass Energy in eV/Retard Ratio  25
# Magnification                   high
# Divide Voltages By 10           off
# Excitation Source               Mg Ka 1253.6 eV normal
# Excitation Energy in eV         1253.6
# Analyser Workfunction in eV     4.5
# Entrance Slit                   6 x 12 mm
# Exit Slit                       5 x 11 mm
#
#
# Kinetic Energy in eV         Counts
# --------------------         ------
1158.600                   13015.2
1158.700                   13128.5
1158.800                   13091.5
1158.900                   12960.2
1159.000                   12822.8
1159.100                   12916.8
1159.200                   12731
1159.300                   12938.5
1159.400                   12889
1159.500                   12960.2
1159.600                   13009.5
1159.700                   12843.5
1159.800                   12938.2
1159.900                   12927
1160.000                   12701.2
1160.100                   12813.8
1160.200                   12780.2
1160.300                   12890
1160.400                   12741.2
1160.500                   12678.2
1160.600                   12681
1160.700                   12751.8
1160.800                   12689.2
1160.900                   12722.5
1161.000                   12685.8
1161.100                   12488.8
1161.200                   12423
1161.300                   12587
1161.400                   12549.2
1161.500                   12423.5
1161.600                   12557.2
1161.700                   12559.5
1161.800                   12415.8
1161.900                   12317
1162.000                   12397.2
1162.100                   12566
1162.200                   12334
1162.300                   12382.2
1162.400                   12564.5
1162.500                   12563
1162.600                   12532.2
1162.700                   12396.8
1162.800                   12359.8
1162.900                   12638.2
1163.000                   12506.8
1163.100                   12434
1163.200                   12391.2
1163.300                   12472.2
1163.400                   12590.2
1163.500                   12730.5
1163.600                   12609.8
1163.700                   12681
1163.800                   12627.2
1163.900                   12508.5
1164.000                   12617.8
1164.100                   12507.5
1164.200                   12678.2
1164.300                   12611.2
1164.400                   12794
1164.500                   12865
1164.600                   12859.8
1164.700                   12702.2
1164.800                   12841.8
1164.900                   12869.2
1165.000                   12941.8
1165.100                   12848.5
1165.200                   13075.5
1165.300                   12893.5
1165.400                   13167
1165.500                   12932
1165.600                   13054
1165.700                   12994
1165.800                   13052.2
1165.900                   13006.8
1166.000                   13110.2
1166.100                   13197.2
1166.200                   12938
1166.300                   13068
1166.400                   13049
1166.500                   12898.2
1166.600                   12998.5
1166.700                   12888.5
1166.800                   12955.5
1166.900                   12938.2
1167.000                   12794.8
1167.100                   12787.8
1167.200                   12743.8
1167.300                   12634.2
1167.400                   12561.5
1167.500                   12638.2
1167.600                   12715.8
1167.700                   12780
1167.800                   12692.8
1167.900                   12838.5
1168.000                   12826.2
1168.100                   12750
1168.200                   12796.5
1168.300                   13193.8
1168.400                   13197
1168.500                   13390.5
1168.600                   13460
1168.700                   13539.8
1168.800                   13717.2
1168.900                   14166
1169.000                   14311.5
1169.100                   14606.2
1169.200                   14999.8
1169.300                   15322.8
1169.400                   15668.2
1169.500                   15841.5
1169.600                   16080.5
1169.700                   16494.2
1169.800                   16799
1169.900                   17115.2
1170.000                   17461.8
1170.100                   17846
1170.200                   18054.2
1170.300                   18449
1170.400                   18716.2
1170.500                   19020.5
1170.600                   19209.5
1170.700                   19352
1170.800                   19282.2
1170.900                   19284.5
1171.000                   19213.2
1171.100                   19193.8
1171.200                   19193.5
1171.300                   18947.8
1171.400                   18848
1171.500                   18777.5
1171.600                   18426
1171.700                   17799.8
1171.800                   17829.5
1171.900                   17376.5
1172.000                   17128.8
1172.100                   16499.5
1172.200                   16248.2
1172.300                   15899.2
1172.400                   15705
1172.500                   15412.8
1172.600                   15072.5
1172.700                   14680.5
1172.800                   14445
1172.900                   14304.8
1173.000                   14021.2
1173.100                   13738.5
1173.200                   13621
1173.300                   13615.8
1173.400                   13315.5
1173.500                   13230.5
1173.600                   13018.2
1173.700                   12772.2
1173.800                   12665
1173.900                   12815
1174.000                   12697.8
1174.100                   12538
1174.200                   12403.2
1174.300                   12379
1174.400                   12339
1174.500                   12282
1174.600                   12015
1174.700                   12151
1174.800                   11998
1174.900                   12181
1175.000                   11978
1175.100                   11902.2
1175.200                   12012.5
1175.300                   11878.2
1175.400                   11793.2
1175.500                   11963.2
1175.600                   11799.2
1175.700                   11778.8
1175.800                   11837.5
1175.900                   11745
1176.000                   11617
1176.100                   11579
1176.200                   11670
1176.300                   11637.5
1176.400                   11631.8
1176.500                   11513.5
1176.600                   11570.5
1176.700                   11764.2
1176.800                   11720.2
1176.900                   11552.8
1177.000                   11496.5
1177.100                   11453.2
1177.200                   11632.8
1177.300                   11559.5
1177.400                   11581.8
1177.500                   11465.5
1177.600                   11442.2
1177.700                   11529.2
1177.800                   11590.5
1177.900                   11723.5
1178.000                   11599.8
1178.100                   11585.8
1178.200                   11517
1178.300                   11450.8
1178.400                   11572
1178.500                   11753.8
1178.600                   11707.2
1178.700                   11657.2
1178.800                   11726
1178.900                   11715
1179.000                   11598.8
1179.100                   11573.2
1179.200                   11492.2
1179.300                   11570
1179.400                   11759.5
1179.500                   11581.8
1179.600                   11709.8
1179.700                   11630
1179.800                   11671.8
1179.900                   11699.8
1180.000                   11810.5
1180.100                   11565
1180.200                   11739.2
1180.300                   11569.8
1180.400                   11595.5
1180.500                   11569
1180.600                   11651.8
1180.700                   11668.5
1180.800                   11558.8
1180.900                   11462
1181.000                   11509.2
1181.100                   11593.2
1181.200                   11621.8
1181.300                   11453.2
1181.400                   11633.8
1181.500                   11490
1181.600                   11466.2
1181.700                   11504.5
1181.800                   11419
1181.900                   11489.2
1182.000                   11383
1182.100                   11380.5
1182.200                   11388.2
1182.300                   11470
1182.400                   11534
1182.500                   11433.8
1182.600                   11317.2
1182.700                   11375.2
1182.800                   11383.8
1182.900                   11404
1183.000                   11495
1183.100                   11621.5
1183.200                   11377
1183.300                   11424
1183.400                   11512.5
1183.500                   11431
1183.600                   11406.2